LabVIEW Measurement	
Writer_Version	2
Reader_Version	2
Separator	Tab
Decimal_Separator	.
Multi_Headings	Yes
X_Columns	One
Time_Pref	Absolute
Operator	W-Tunnel
Date	2024/05/15
Time	15:43:47.0002361812495430154
***End_of_Header***	
	
Channels	1	
Samples	10000	
Date	2024/05/15	
Time	15:50:27.9105130812495894735	
Y_Unit_Label	Volts	
X_Dimension	Time	
X0	0.0000000000000000E+0	
Delta_X	0.000488	
***End_of_Header***		
X_Value	Voltage	Comment
0.000000	1.813370
0.000488	1.813335
0.000977	1.813496
0.001465	1.813582
0.001953	1.813289
0.002441	1.813290
0.002930	1.813379
0.003418	1.813650
0.003906	1.813503
0.004395	1.813369
0.004883	1.813216
0.005371	1.813428
0.005859	1.813096
0.006348	1.813383
0.006836	1.813171
0.007324	1.813228
0.007812	1.813115
0.008301	1.813497
0.008789	1.813010
0.009277	1.813401
0.009766	1.813362
0.010254	1.813470
0.010742	1.813484
0.011230	1.813460
0.011719	1.813359
0.012207	1.813430
0.012695	1.813560
0.013184	1.813427
0.013672	1.813549
0.014160	1.813578
0.014648	1.813450
0.015137	1.813641
0.015625	1.813546
0.016113	1.813566
0.016602	1.813841
0.017090	1.813605
0.017578	1.813614
0.018066	1.813937
0.018555	1.813934
0.019043	1.813962
0.019531	1.814209
0.020020	1.813960
0.020508	1.813992
0.020996	1.814117
0.021484	1.814030
0.021973	1.813945
0.022461	1.814098
0.022949	1.813884
0.023437	1.814069
0.023926	1.813890
0.024414	1.813872
0.024902	1.813900
0.025391	1.813933
0.025879	1.813722
0.026367	1.813984
0.026855	1.813921
0.027344	1.813752
0.027832	1.814092
0.028320	1.813998
0.028809	1.813962
0.029297	1.813759
0.029785	1.813760
0.030273	1.813853
0.030762	1.813493
0.031250	1.813711
0.031738	1.813850
0.032227	1.814013
0.032715	1.813725
0.033203	1.813901
0.033691	1.813843
0.034180	1.813854
0.034668	1.813710
0.035156	1.813905
0.035645	1.813693
0.036133	1.813791
0.036621	1.813981
0.037109	1.813949
0.037598	1.813711
0.038086	1.814056
0.038574	1.813506
0.039062	1.813525
0.039551	1.813478
0.040039	1.813598
0.040527	1.813505
0.041016	1.813583
0.041504	1.813531
0.041992	1.813451
0.042480	1.813851
0.042969	1.813538
0.043457	1.813631
0.043945	1.813656
0.044434	1.813708
0.044922	1.813436
0.045410	1.813497
0.045898	1.813646
0.046387	1.813566
0.046875	1.813569
0.047363	1.813577
0.047852	1.813280
0.048340	1.813389
0.048828	1.813440
0.049316	1.813553
0.049805	1.813282
0.050293	1.813406
0.050781	1.813410
0.051270	1.813712
0.051758	1.813858
0.052246	1.813637
0.052734	1.813769
0.053223	1.813693
0.053711	1.813571
0.054199	1.813372
0.054687	1.813458
0.055176	1.813385
0.055664	1.813531
0.056152	1.813160
0.056641	1.813535
0.057129	1.813445
0.057617	1.813231
0.058105	1.813481
0.058594	1.813545
0.059082	1.813608
0.059570	1.813484
0.060059	1.813319
0.060547	1.813561
0.061035	1.813597
0.061523	1.813633
0.062012	1.813570
0.062500	1.813617
0.062988	1.813414
0.063477	1.813689
0.063965	1.813444
0.064453	1.813430
0.064941	1.813426
0.065430	1.813689
0.065918	1.813403
0.066406	1.813487
0.066895	1.813520
0.067383	1.813376
0.067871	1.813659
0.068359	1.813841
0.068848	1.813591
0.069336	1.813502
0.069824	1.813566
0.070312	1.813591
0.070801	1.813770
0.071289	1.813708
0.071777	1.813829
0.072266	1.813707
0.072754	1.813840
0.073242	1.813453
0.073730	1.813730
0.074219	1.813634
0.074707	1.813654
0.075195	1.813581
0.075684	1.813544
0.076172	1.813450
0.076660	1.813668
0.077148	1.813444
0.077637	1.813346
0.078125	1.813662
0.078613	1.813596
0.079102	1.813473
0.079590	1.813555
0.080078	1.813563
0.080566	1.813500
0.081055	1.813547
0.081543	1.813616
0.082031	1.813523
0.082520	1.813491
0.083008	1.813271
0.083496	1.813386
0.083984	1.813680
0.084473	1.813511
0.084961	1.813463
0.085449	1.813477
0.085937	1.813627
0.086426	1.813202
0.086914	1.813331
0.087402	1.813355
0.087891	1.813369
0.088379	1.813419
0.088867	1.813331
0.089355	1.813801
0.089844	1.813265
0.090332	1.813246
0.090820	1.813240
0.091309	1.813087
0.091797	1.813149
0.092285	1.813218
0.092773	1.813345
0.093262	1.813224
0.093750	1.813378
0.094238	1.813417
0.094727	1.813307
0.095215	1.813343
0.095703	1.813152
0.096191	1.813406
0.096680	1.813414
0.097168	1.813383
0.097656	1.813462
0.098145	1.813109
0.098633	1.813318
0.099121	1.813314
0.099609	1.813267
0.100098	1.813305
0.100586	1.813362
0.101074	1.813743
0.101562	1.813551
0.102051	1.813212
0.102539	1.813682
0.103027	1.813417
0.103516	1.813341
0.104004	1.813425
0.104492	1.813395
0.104980	1.813425
0.105469	1.813464
0.105957	1.813461
0.106445	1.813622
0.106934	1.813793
0.107422	1.813565
0.107910	1.813501
0.108398	1.813677
0.108887	1.813597
0.109375	1.813586
0.109863	1.813453
0.110352	1.813542
0.110840	1.813484
0.111328	1.813151
0.111816	1.813955
0.112305	1.813710
0.112793	1.813761
0.113281	1.813831
0.113770	1.813581
0.114258	1.813785
0.114746	1.813660
0.115234	1.813757
0.115723	1.813666
0.116211	1.813941
0.116699	1.813645
0.117187	1.813914
0.117676	1.814051
0.118164	1.814140
0.118652	1.814261
0.119141	1.814145
0.119629	1.814169
0.120117	1.813907
0.120605	1.814143
0.121094	1.814091
0.121582	1.813967
0.122070	1.813921
0.122559	1.814153
0.123047	1.814078
0.123535	1.814433
0.124023	1.814417
0.124512	1.814234
0.125000	1.814332
0.125488	1.814232
0.125977	1.814182
0.126465	1.814288
0.126953	1.814146
0.127441	1.814056
0.127930	1.814158
0.128418	1.814297
0.128906	1.814260
0.129395	1.814647
0.129883	1.814370
0.130371	1.814477
0.130859	1.814401
0.131348	1.814519
0.131836	1.814487
0.132324	1.814505
0.132812	1.814302
0.133301	1.814378
0.133789	1.814265
0.134277	1.814209
0.134766	1.814367
0.135254	1.814329
0.135742	1.814447
0.136230	1.814178
0.136719	1.814649
0.137207	1.814308
0.137695	1.814139
0.138184	1.814103
0.138672	1.814185
0.139160	1.814035
0.139648	1.813981
0.140137	1.813755
0.140625	1.813769
0.141113	1.813753
0.141602	1.813706
0.142090	1.813757
0.142578	1.813639
0.143066	1.814047
0.143555	1.813927
0.144043	1.814030
0.144531	1.813764
0.145020	1.813848
0.145508	1.813957
0.145996	1.813901
0.146484	1.813923
0.146973	1.813933
0.147461	1.813576
0.147949	1.813716
0.148437	1.813881
0.148926	1.813774
0.149414	1.814067
0.149902	1.813660
0.150391	1.813754
0.150879	1.813847
0.151367	1.813373
0.151855	1.813744
0.152344	1.813746
0.152832	1.813759
0.153320	1.813672
0.153809	1.813934
0.154297	1.814111
0.154785	1.813849
0.155273	1.813990
0.155762	1.813877
0.156250	1.813752
0.156738	1.813861
0.157227	1.813897
0.157715	1.813863
0.158203	1.814071
0.158691	1.814145
0.159180	1.814190
0.159668	1.814104
0.160156	1.813998
0.160645	1.814026
0.161133	1.814382
0.161621	1.813973
0.162109	1.814154
0.162598	1.814263
0.163086	1.813889
0.163574	1.814089
0.164062	1.814183
0.164551	1.814152
0.165039	1.814243
0.165527	1.814182
0.166016	1.814491
0.166504	1.814394
0.166992	1.814192
0.167480	1.814267
0.167969	1.814266
0.168457	1.814526
0.168945	1.814283
0.169434	1.814597
0.169922	1.814411
0.170410	1.814399
0.170898	1.814441
0.171387	1.814263
0.171875	1.814590
0.172363	1.814326
0.172852	1.814347
0.173340	1.814382
0.173828	1.814242
0.174316	1.814198
0.174805	1.814183
0.175293	1.814370
0.175781	1.814215
0.176270	1.814325
0.176758	1.814560
0.177246	1.814377
0.177734	1.814509
0.178223	1.814532
0.178711	1.814372
0.179199	1.814482
0.179687	1.814412
0.180176	1.814276
0.180664	1.814413
0.181152	1.814126
0.181641	1.814252
0.182129	1.814414
0.182617	1.814262
0.183105	1.813868
0.183594	1.814438
0.184082	1.813965
0.184570	1.814151
0.185059	1.814368
0.185547	1.814071
0.186035	1.814098
0.186523	1.814100
0.187012	1.813954
0.187500	1.813941
0.187988	1.814410
0.188477	1.813671
0.188965	1.813738
0.189453	1.813754
0.189941	1.813549
0.190430	1.813771
0.190918	1.813830
0.191406	1.813465
0.191895	1.813639
0.192383	1.813686
0.192871	1.813634
0.193359	1.813635
0.193848	1.813810
0.194336	1.813850
0.194824	1.813833
0.195312	1.813755
0.195801	1.813461
0.196289	1.813747
0.196777	1.813822
0.197266	1.813734
0.197754	1.813674
0.198242	1.813646
0.198730	1.813828
0.199219	1.813747
0.199707	1.813716
0.200195	1.813744
0.200684	1.813777
0.201172	1.813604
0.201660	1.813985
0.202148	1.813696
0.202637	1.813566
0.203125	1.813774
0.203613	1.813631
0.204102	1.813671
0.204590	1.813650
0.205078	1.813970
0.205566	1.814009
0.206055	1.813546
0.206543	1.813924
0.207031	1.813686
0.207520	1.813862
0.208008	1.813912
0.208496	1.813928
0.208984	1.813815
0.209473	1.814111
0.209961	1.813849
0.210449	1.813891
0.210937	1.813949
0.211426	1.813883
0.211914	1.813688
0.212402	1.813923
0.212891	1.813653
0.213379	1.814007
0.213867	1.813679
0.214355	1.813525
0.214844	1.813860
0.215332	1.813848
0.215820	1.813865
0.216309	1.813815
0.216797	1.814248
0.217285	1.814262
0.217773	1.814118
0.218262	1.814038
0.218750	1.814011
0.219238	1.813876
0.219727	1.814046
0.220215	1.813859
0.220703	1.814164
0.221191	1.813893
0.221680	1.813873
0.222168	1.814017
0.222656	1.813861
0.223145	1.813965
0.223633	1.813797
0.224121	1.814040
0.224609	1.813976
0.225098	1.814156
0.225586	1.813966
0.226074	1.813995
0.226562	1.814189
0.227051	1.814166
0.227539	1.814102
0.228027	1.813869
0.228516	1.814010
0.229004	1.814013
0.229492	1.813886
0.229980	1.813782
0.230469	1.813808
0.230957	1.813949
0.231445	1.813733
0.231934	1.813976
0.232422	1.813866
0.232910	1.813631
0.233398	1.813755
0.233887	1.813901
0.234375	1.813707
0.234863	1.813839
0.235352	1.813552
0.235840	1.813884
0.236328	1.813857
0.236816	1.813709
0.237305	1.813997
0.237793	1.813821
0.238281	1.813771
0.238770	1.813802
0.239258	1.813794
0.239746	1.813561
0.240234	1.813622
0.240723	1.813441
0.241211	1.813691
0.241699	1.813790
0.242187	1.813976
0.242676	1.813837
0.243164	1.813852
0.243652	1.813956
0.244141	1.813628
0.244629	1.813671
0.245117	1.813968
0.245605	1.813913
0.246094	1.813746
0.246582	1.813776
0.247070	1.814004
0.247559	1.813957
0.248047	1.813706
0.248535	1.813937
0.249023	1.813724
0.249512	1.813932
0.250000	1.813985
0.250488	1.814107
0.250977	1.814128
0.251465	1.813911
0.251953	1.813970
0.252441	1.813801
0.252930	1.814055
0.253418	1.814051
0.253906	1.813979
0.254395	1.813750
0.254883	1.814109
0.255371	1.814170
0.255859	1.814004
0.256348	1.814103
0.256836	1.814199
0.257324	1.814511
0.257812	1.814236
0.258301	1.814259
0.258789	1.814312
0.259277	1.814375
0.259766	1.814343
0.260254	1.814259
0.260742	1.814458
0.261230	1.814252
0.261719	1.814576
0.262207	1.814225
0.262695	1.814367
0.263184	1.814363
0.263672	1.814644
0.264160	1.814386
0.264648	1.814747
0.265137	1.814418
0.265625	1.814516
0.266113	1.814660
0.266602	1.814616
0.267090	1.814879
0.267578	1.814746
0.268066	1.814815
0.268555	1.814690
0.269043	1.814899
0.269531	1.814761
0.270020	1.815108
0.270508	1.814877
0.270996	1.814774
0.271484	1.814742
0.271973	1.814533
0.272461	1.814676
0.272949	1.814381
0.273437	1.814588
0.273926	1.814638
0.274414	1.814444
0.274902	1.814546
0.275391	1.814811
0.275879	1.814669
0.276367	1.814652
0.276855	1.814654
0.277344	1.814813
0.277832	1.814519
0.278320	1.814679
0.278809	1.814445
0.279297	1.814464
0.279785	1.814475
0.280273	1.814655
0.280762	1.814532
0.281250	1.814546
0.281738	1.814323
0.282227	1.814400
0.282715	1.814603
0.283203	1.814388
0.283691	1.814519
0.284180	1.814551
0.284668	1.814406
0.285156	1.814441
0.285645	1.814605
0.286133	1.814397
0.286621	1.814400
0.287109	1.814490
0.287598	1.814483
0.288086	1.814464
0.288574	1.814482
0.289062	1.814183
0.289551	1.814245
0.290039	1.814399
0.290527	1.814355
0.291016	1.814390
0.291504	1.814143
0.291992	1.814565
0.292480	1.814164
0.292969	1.814085
0.293457	1.814464
0.293945	1.814104
0.294434	1.814255
0.294922	1.814005
0.295410	1.814162
0.295898	1.814366
0.296387	1.814274
0.296875	1.814091
0.297363	1.813996
0.297852	1.814193
0.298340	1.813855
0.298828	1.814078
0.299316	1.813980
0.299805	1.814042
0.300293	1.814336
0.300781	1.813876
0.301270	1.813721
0.301758	1.813927
0.302246	1.814189
0.302734	1.813924
0.303223	1.814146
0.303711	1.813896
0.304199	1.813884
0.304687	1.813984
0.305176	1.814040
0.305664	1.813901
0.306152	1.814010
0.306641	1.814075
0.307129	1.814058
0.307617	1.814037
0.308105	1.814009
0.308594	1.814071
0.309082	1.814226
0.309570	1.814276
0.310059	1.813987
0.310547	1.814171
0.311035	1.813895
0.311523	1.814184
0.312012	1.814177
0.312500	1.814211
0.312988	1.814011
0.313477	1.814323
0.313965	1.814261
0.314453	1.814226
0.314941	1.814212
0.315430	1.814168
0.315918	1.814276
0.316406	1.814313
0.316895	1.814266
0.317383	1.814229
0.317871	1.814364
0.318359	1.814294
0.318848	1.814498
0.319336	1.814187
0.319824	1.814289
0.320312	1.814175
0.320801	1.814389
0.321289	1.814200
0.321777	1.814311
0.322266	1.814408
0.322754	1.814120
0.323242	1.814426
0.323730	1.814293
0.324219	1.814292
0.324707	1.814048
0.325195	1.814054
0.325684	1.814136
0.326172	1.814342
0.326660	1.814157
0.327148	1.814161
0.327637	1.814323
0.328125	1.814224
0.328613	1.814552
0.329102	1.814233
0.329590	1.814051
0.330078	1.813912
0.330566	1.814170
0.331055	1.813963
0.331543	1.813974
0.332031	1.813850
0.332520	1.813898
0.333008	1.813973
0.333496	1.814032
0.333984	1.813822
0.334473	1.813700
0.334961	1.813971
0.335449	1.813849
0.335937	1.813902
0.336426	1.813733
0.336914	1.813816
0.337402	1.813711
0.337891	1.813853
0.338379	1.813667
0.338867	1.813559
0.339355	1.813694
0.339844	1.813695
0.340332	1.813953
0.340820	1.813792
0.341309	1.814004
0.341797	1.813903
0.342285	1.813942
0.342773	1.813842
0.343262	1.813872
0.343750	1.813917
0.344238	1.813805
0.344727	1.813908
0.345215	1.813880
0.345703	1.813819
0.346191	1.813968
0.346680	1.814062
0.347168	1.813771
0.347656	1.814161
0.348145	1.814007
0.348633	1.814001
0.349121	1.813959
0.349609	1.813980
0.350098	1.814038
0.350586	1.813966
0.351074	1.814006
0.351562	1.814176
0.352051	1.814180
0.352539	1.814013
0.353027	1.814057
0.353516	1.814090
0.354004	1.814006
0.354492	1.814211
0.354980	1.814091
0.355469	1.814046
0.355957	1.814113
0.356445	1.814170
0.356934	1.814104
0.357422	1.814525
0.357910	1.814383
0.358398	1.814457
0.358887	1.814493
0.359375	1.814497
0.359863	1.814355
0.360352	1.814606
0.360840	1.814502
0.361328	1.814555
0.361816	1.814859
0.362305	1.814918
0.362793	1.814882
0.363281	1.815022
0.363770	1.814934
0.364258	1.814768
0.364746	1.814921
0.365234	1.814799
0.365723	1.814957
0.366211	1.814855
0.366699	1.815042
0.367187	1.814828
0.367676	1.815199
0.368164	1.815073
0.368652	1.815249
0.369141	1.815087
0.369629	1.815002
0.370117	1.814971
0.370605	1.815025
0.371094	1.815009
0.371582	1.815052
0.372070	1.815088
0.372559	1.814955
0.373047	1.815217
0.373535	1.815017
0.374023	1.814909
0.374512	1.815114
0.375000	1.814975
0.375488	1.814752
0.375977	1.814881
0.376465	1.814787
0.376953	1.814710
0.377441	1.814981
0.377930	1.814615
0.378418	1.815100
0.378906	1.814705
0.379395	1.814890
0.379883	1.815037
0.380371	1.814647
0.380859	1.814923
0.381348	1.814893
0.381836	1.814954
0.382324	1.814719
0.382812	1.814627
0.383301	1.814895
0.383789	1.814631
0.384277	1.814668
0.384766	1.814460
0.385254	1.814719
0.385742	1.814347
0.386230	1.814566
0.386719	1.814386
0.387207	1.814509
0.387695	1.814312
0.388184	1.814316
0.388672	1.814511
0.389160	1.814348
0.389648	1.814239
0.390137	1.814580
0.390625	1.814363
0.391113	1.814217
0.391602	1.814525
0.392090	1.814381
0.392578	1.814314
0.393066	1.814159
0.393555	1.814132
0.394043	1.814264
0.394531	1.814049
0.395020	1.814129
0.395508	1.814184
0.395996	1.814111
0.396484	1.814120
0.396973	1.814019
0.397461	1.814041
0.397949	1.813977
0.398437	1.813985
0.398926	1.814193
0.399414	1.814026
0.399902	1.813991
0.400391	1.813865
0.400879	1.813877
0.401367	1.813785
0.401855	1.813935
0.402344	1.813652
0.402832	1.813701
0.403320	1.813630
0.403809	1.813558
0.404297	1.813832
0.404785	1.813857
0.405273	1.813727
0.405762	1.813821
0.406250	1.813675
0.406738	1.813914
0.407227	1.814204
0.407715	1.813813
0.408203	1.813768
0.408691	1.814127
0.409180	1.814104
0.409668	1.813733
0.410156	1.813869
0.410645	1.814044
0.411133	1.813951
0.411621	1.813822
0.412109	1.813855
0.412598	1.814048
0.413086	1.814043
0.413574	1.814033
0.414062	1.814049
0.414551	1.814152
0.415039	1.814081
0.415527	1.814252
0.416016	1.814245
0.416504	1.814107
0.416992	1.814354
0.417480	1.814275
0.417969	1.814202
0.418457	1.814075
0.418945	1.813937
0.419434	1.813902
0.419922	1.814018
0.420410	1.813985
0.420898	1.814048
0.421387	1.814104
0.421875	1.814352
0.422363	1.813761
0.422852	1.813866
0.423340	1.814043
0.423828	1.813904
0.424316	1.813918
0.424805	1.813821
0.425293	1.814010
0.425781	1.814023
0.426270	1.813565
0.426758	1.813907
0.427246	1.813638
0.427734	1.813858
0.428223	1.813746
0.428711	1.813840
0.429199	1.813802
0.429687	1.813773
0.430176	1.813627
0.430664	1.813757
0.431152	1.813846
0.431641	1.813866
0.432129	1.813910
0.432617	1.813620
0.433105	1.814101
0.433594	1.813724
0.434082	1.813652
0.434570	1.813803
0.435059	1.813684
0.435547	1.813758
0.436035	1.813865
0.436523	1.813870
0.437012	1.814014
0.437500	1.813907
0.437988	1.813728
0.438477	1.814035
0.438965	1.813824
0.439453	1.813808
0.439941	1.813885
0.440430	1.813855
0.440918	1.813710
0.441406	1.813951
0.441895	1.813667
0.442383	1.813860
0.442871	1.813899
0.443359	1.813778
0.443848	1.813634
0.444336	1.814120
0.444824	1.813905
0.445312	1.813971
0.445801	1.814076
0.446289	1.814092
0.446777	1.814114
0.447266	1.814397
0.447754	1.814268
0.448242	1.814163
0.448730	1.814388
0.449219	1.814121
0.449707	1.814330
0.450195	1.814305
0.450684	1.814258
0.451172	1.814356
0.451660	1.813805
0.452148	1.814049
0.452637	1.814058
0.453125	1.813879
0.453613	1.814004
0.454102	1.814151
0.454590	1.814386
0.455078	1.814057
0.455566	1.814212
0.456055	1.814278
0.456543	1.814124
0.457031	1.814497
0.457520	1.814410
0.458008	1.814502
0.458496	1.814442
0.458984	1.814571
0.459473	1.814561
0.459961	1.814549
0.460449	1.814344
0.460937	1.814550
0.461426	1.814591
0.461914	1.814815
0.462402	1.814430
0.462891	1.814524
0.463379	1.814273
0.463867	1.814546
0.464355	1.814606
0.464844	1.814278
0.465332	1.814738
0.465820	1.814716
0.466309	1.814617
0.466797	1.814676
0.467285	1.814706
0.467773	1.814651
0.468262	1.814525
0.468750	1.814582
0.469238	1.814867
0.469727	1.814583
0.470215	1.814581
0.470703	1.814354
0.471191	1.814588
0.471680	1.814630
0.472168	1.814650
0.472656	1.814515
0.473145	1.814574
0.473633	1.814678
0.474121	1.814368
0.474609	1.814474
0.475098	1.814535
0.475586	1.814525
0.476074	1.814505
0.476562	1.814395
0.477051	1.814491
0.477539	1.814474
0.478027	1.814514
0.478516	1.814494
0.479004	1.814272
0.479492	1.814446
0.479980	1.814313
0.480469	1.814101
0.480957	1.814446
0.481445	1.814303
0.481934	1.814748
0.482422	1.814485
0.482910	1.814348
0.483398	1.814225
0.483887	1.814248
0.484375	1.814190
0.484863	1.814131
0.485352	1.814081
0.485840	1.814075
0.486328	1.814035
0.486816	1.814096
0.487305	1.814217
0.487793	1.813944
0.488281	1.814146
0.488770	1.814121
0.489258	1.813697
0.489746	1.814118
0.490234	1.813684
0.490723	1.813977
0.491211	1.813854
0.491699	1.813808
0.492187	1.813791
0.492676	1.813741
0.493164	1.813827
0.493652	1.813640
0.494141	1.813442
0.494629	1.813677
0.495117	1.813675
0.495605	1.813677
0.496094	1.813559
0.496582	1.813788
0.497070	1.813689
0.497559	1.813954
0.498047	1.813872
0.498535	1.813970
0.499023	1.813677
0.499512	1.813639
0.500000	1.813633
0.500488	1.813572
0.500977	1.813909
0.501465	1.813739
0.501953	1.813659
0.502441	1.813747
0.502930	1.813403
0.503418	1.813520
0.503906	1.813622
0.504395	1.813760
0.504883	1.813396
0.505371	1.813768
0.505859	1.813627
0.506348	1.813831
0.506836	1.813921
0.507324	1.814065
0.507812	1.814101
0.508301	1.814100
0.508789	1.814157
0.509277	1.814405
0.509766	1.814248
0.510254	1.813959
0.510742	1.814099
0.511230	1.814286
0.511719	1.814109
0.512207	1.814100
0.512695	1.813971
0.513184	1.814052
0.513672	1.814076
0.514160	1.814480
0.514648	1.814165
0.515137	1.814165
0.515625	1.814267
0.516113	1.814278
0.516602	1.814334
0.517090	1.814248
0.517578	1.814405
0.518066	1.814348
0.518555	1.814485
0.519043	1.814450
0.519531	1.814275
0.520020	1.814239
0.520508	1.814055
0.520996	1.814203
0.521484	1.814272
0.521973	1.814103
0.522461	1.814097
0.522949	1.814259
0.523437	1.814225
0.523926	1.814380
0.524414	1.814406
0.524902	1.814068
0.525391	1.814261
0.525879	1.814248
0.526367	1.814140
0.526855	1.814219
0.527344	1.814235
0.527832	1.814302
0.528320	1.814184
0.528809	1.814074
0.529297	1.814020
0.529785	1.814196
0.530273	1.813921
0.530762	1.813708
0.531250	1.814087
0.531738	1.813904
0.532227	1.813925
0.532715	1.813575
0.533203	1.813812
0.533691	1.813770
0.534180	1.813894
0.534668	1.813697
0.535156	1.813851
0.535645	1.813704
0.536133	1.813755
0.536621	1.813633
0.537109	1.813598
0.537598	1.813813
0.538086	1.813768
0.538574	1.813680
0.539062	1.813743
0.539551	1.813709
0.540039	1.813846
0.540527	1.813540
0.541016	1.813680
0.541504	1.813959
0.541992	1.813816
0.542480	1.813724
0.542969	1.813651
0.543457	1.813833
0.543945	1.813850
0.544434	1.813647
0.544922	1.814001
0.545410	1.813987
0.545898	1.813959
0.546387	1.813838
0.546875	1.813983
0.547363	1.813880
0.547852	1.813831
0.548340	1.813779
0.548828	1.813647
0.549316	1.813744
0.549805	1.813447
0.550293	1.813511
0.550781	1.813855
0.551270	1.813811
0.551758	1.813716
0.552246	1.813673
0.552734	1.813711
0.553223	1.813532
0.553711	1.813790
0.554199	1.813642
0.554687	1.813828
0.555176	1.813786
0.555664	1.814016
0.556152	1.814233
0.556641	1.814264
0.557129	1.814237
0.557617	1.814063
0.558105	1.814321
0.558594	1.814268
0.559082	1.814181
0.559570	1.814597
0.560059	1.814278
0.560547	1.814381
0.561035	1.814455
0.561523	1.814425
0.562012	1.814547
0.562500	1.814357
0.562988	1.814662
0.563477	1.814668
0.563965	1.814710
0.564453	1.814762
0.564941	1.814760
0.565430	1.814744
0.565918	1.814941
0.566406	1.814792
0.566895	1.815153
0.567383	1.814931
0.567871	1.814861
0.568359	1.815101
0.568848	1.815124
0.569336	1.815051
0.569824	1.815003
0.570312	1.814790
0.570801	1.815196
0.571289	1.814610
0.571777	1.814635
0.572266	1.814824
0.572754	1.814769
0.573242	1.814858
0.573730	1.814815
0.574219	1.815034
0.574707	1.814766
0.575195	1.815087
0.575684	1.814713
0.576172	1.814874
0.576660	1.814926
0.577148	1.814843
0.577637	1.814642
0.578125	1.814807
0.578613	1.814703
0.579102	1.814652
0.579590	1.814613
0.580078	1.814728
0.580566	1.814637
0.581055	1.814731
0.581543	1.814612
0.582031	1.814576
0.582520	1.814464
0.583008	1.814433
0.583496	1.814520
0.583984	1.814654
0.584473	1.814481
0.584961	1.814726
0.585449	1.814661
0.585937	1.814622
0.586426	1.814628
0.586914	1.814540
0.587402	1.814654
0.587891	1.814774
0.588379	1.814561
0.588867	1.814811
0.589355	1.814500
0.589844	1.814341
0.590332	1.814162
0.590820	1.814313
0.591309	1.814435
0.591797	1.814261
0.592285	1.814505
0.592773	1.814624
0.593262	1.814338
0.593750	1.814534
0.594238	1.814216
0.594727	1.814265
0.595215	1.814327
0.595703	1.814384
0.596191	1.814470
0.596680	1.814435
0.597168	1.814449
0.597656	1.814509
0.598145	1.814243
0.598633	1.814276
0.599121	1.814318
0.599609	1.814476
0.600098	1.814294
0.600586	1.814100
0.601074	1.814355
0.601562	1.813999
0.602051	1.814129
0.602539	1.814162
0.603027	1.814228
0.603516	1.814286
0.604004	1.814303
0.604492	1.814144
0.604980	1.814500
0.605469	1.814386
0.605957	1.814521
0.606445	1.814641
0.606934	1.814516
0.607422	1.814507
0.607910	1.814401
0.608398	1.814436
0.608887	1.814300
0.609375	1.814408
0.609863	1.814511
0.610352	1.814560
0.610840	1.814535
0.611328	1.814597
0.611816	1.814652
0.612305	1.814414
0.612793	1.814460
0.613281	1.814590
0.613770	1.814676
0.614258	1.814542
0.614746	1.814694
0.615234	1.814400
0.615723	1.814540
0.616211	1.814376
0.616699	1.814655
0.617187	1.814337
0.617676	1.814638
0.618164	1.814741
0.618652	1.814487
0.619141	1.814460
0.619629	1.814338
0.620117	1.814332
0.620605	1.814345
0.621094	1.814429
0.621582	1.814420
0.622070	1.814453
0.622559	1.814453
0.623047	1.814423
0.623535	1.814685
0.624023	1.814475
0.624512	1.814365
0.625000	1.814528
0.625488	1.814337
0.625977	1.814384
0.626465	1.814772
0.626953	1.814389
0.627441	1.814399
0.627930	1.814635
0.628418	1.814442
0.628906	1.814261
0.629395	1.814433
0.629883	1.814420
0.630371	1.814241
0.630859	1.814274
0.631348	1.814304
0.631836	1.814275
0.632324	1.814451
0.632812	1.814280
0.633301	1.814427
0.633789	1.814436
0.634277	1.814383
0.634766	1.814410
0.635254	1.814357
0.635742	1.814327
0.636230	1.814370
0.636719	1.814377
0.637207	1.814140
0.637695	1.814211
0.638184	1.814226
0.638672	1.814094
0.639160	1.814395
0.639648	1.814181
0.640137	1.813957
0.640625	1.814281
0.641113	1.814128
0.641602	1.813976
0.642090	1.814161
0.642578	1.813933
0.643066	1.814105
0.643555	1.814070
0.644043	1.814077
0.644531	1.814087
0.645020	1.814107
0.645508	1.813996
0.645996	1.814096
0.646484	1.813988
0.646973	1.814096
0.647461	1.814103
0.647949	1.814173
0.648437	1.813915
0.648926	1.814018
0.649414	1.814162
0.649902	1.813829
0.650391	1.813965
0.650879	1.813741
0.651367	1.813921
0.651855	1.813949
0.652344	1.814009
0.652832	1.813919
0.653320	1.814148
0.653809	1.814164
0.654297	1.814122
0.654785	1.814300
0.655273	1.814328
0.655762	1.814339
0.656250	1.814352
0.656738	1.814250
0.657227	1.814312
0.657715	1.814435
0.658203	1.814300
0.658691	1.814346
0.659180	1.814492
0.659668	1.813952
0.660156	1.814223
0.660645	1.814333
0.661133	1.814078
0.661621	1.814485
0.662109	1.814029
0.662598	1.814494
0.663086	1.814239
0.663574	1.814144
0.664062	1.814377
0.664551	1.814273
0.665039	1.814507
0.665527	1.814468
0.666016	1.814541
0.666504	1.814438
0.666992	1.814505
0.667480	1.814536
0.667969	1.814561
0.668457	1.814485
0.668945	1.814216
0.669434	1.814539
0.669922	1.814425
0.670410	1.814443
0.670898	1.814302
0.671387	1.814295
0.671875	1.814466
0.672363	1.814237
0.672852	1.814236
0.673340	1.814302
0.673828	1.814285
0.674316	1.814237
0.674805	1.814410
0.675293	1.814271
0.675781	1.814245
0.676270	1.814297
0.676758	1.814333
0.677246	1.814155
0.677734	1.814077
0.678223	1.813739
0.678711	1.814098
0.679199	1.813867
0.679687	1.814054
0.680176	1.814033
0.680664	1.813930
0.681152	1.813866
0.681641	1.813709
0.682129	1.813805
0.682617	1.814000
0.683105	1.813859
0.683594	1.813563
0.684082	1.813466
0.684570	1.813910
0.685059	1.813803
0.685547	1.813741
0.686035	1.813779
0.686523	1.813651
0.687012	1.813567
0.687500	1.813658
0.687988	1.813647
0.688477	1.813226
0.688965	1.813695
0.689453	1.813564
0.689941	1.813420
0.690430	1.813154
0.690918	1.813763
0.691406	1.813249
0.691895	1.813820
0.692383	1.813492
0.692871	1.813403
0.693359	1.813432
0.693848	1.813543
0.694336	1.813638
0.694824	1.813487
0.695312	1.813517
0.695801	1.813716
0.696289	1.813659
0.696777	1.813716
0.697266	1.813493
0.697754	1.813677
0.698242	1.813464
0.698730	1.813451
0.699219	1.813814
0.699707	1.813399
0.700195	1.813467
0.700684	1.813411
0.701172	1.813507
0.701660	1.813595
0.702148	1.813313
0.702637	1.813561
0.703125	1.813538
0.703613	1.813682
0.704102	1.813547
0.704590	1.813589
0.705078	1.813657
0.705566	1.813681
0.706055	1.813472
0.706543	1.813681
0.707031	1.813604
0.707520	1.813595
0.708008	1.813650
0.708496	1.813477
0.708984	1.814067
0.709473	1.813814
0.709961	1.814120
0.710449	1.814217
0.710937	1.813771
0.711426	1.813966
0.711914	1.814087
0.712402	1.814312
0.712891	1.814203
0.713379	1.814469
0.713867	1.814304
0.714355	1.814383
0.714844	1.814165
0.715332	1.814342
0.715820	1.814208
0.716309	1.814159
0.716797	1.814282
0.717285	1.814106
0.717773	1.814148
0.718262	1.814150
0.718750	1.814112
0.719238	1.813945
0.719727	1.814229
0.720215	1.813747
0.720703	1.814117
0.721191	1.814069
0.721680	1.814112
0.722168	1.814084
0.722656	1.814106
0.723145	1.814320
0.723633	1.814389
0.724121	1.814303
0.724609	1.814461
0.725098	1.814313
0.725586	1.814213
0.726074	1.814272
0.726562	1.814009
0.727051	1.813985
0.727539	1.813894
0.728027	1.813877
0.728516	1.813730
0.729004	1.813997
0.729492	1.813731
0.729980	1.813708
0.730469	1.813748
0.730957	1.813661
0.731445	1.813510
0.731934	1.813605
0.732422	1.813723
0.732910	1.813693
0.733398	1.813617
0.733887	1.813554
0.734375	1.813621
0.734863	1.813712
0.735352	1.813625
0.735840	1.813546
0.736328	1.813861
0.736816	1.813569
0.737305	1.813810
0.737793	1.813658
0.738281	1.813339
0.738770	1.813653
0.739258	1.813434
0.739746	1.813561
0.740234	1.813253
0.740723	1.813352
0.741211	1.813587
0.741699	1.813248
0.742187	1.813348
0.742676	1.813368
0.743164	1.813349
0.743652	1.813502
0.744141	1.813456
0.744629	1.813390
0.745117	1.813352
0.745605	1.813277
0.746094	1.813667
0.746582	1.813500
0.747070	1.813446
0.747559	1.813880
0.748047	1.813528
0.748535	1.813877
0.749023	1.813543
0.749512	1.813611
0.750000	1.813515
0.750488	1.813910
0.750977	1.813669
0.751465	1.813686
0.751953	1.813746
0.752441	1.814004
0.752930	1.813549
0.753418	1.814001
0.753906	1.813765
0.754395	1.813795
0.754883	1.813761
0.755371	1.813779
0.755859	1.813793
0.756348	1.814027
0.756836	1.814095
0.757324	1.814057
0.757812	1.814305
0.758301	1.814071
0.758789	1.814171
0.759277	1.814093
0.759766	1.814322
0.760254	1.814175
0.760742	1.814229
0.761230	1.814327
0.761719	1.814386
0.762207	1.814427
0.762695	1.814463
0.763184	1.814319
0.763672	1.814569
0.764160	1.814175
0.764648	1.814438
0.765137	1.814630
0.765625	1.814322
0.766113	1.814220
0.766602	1.814269
0.767090	1.814362
0.767578	1.814475
0.768066	1.814358
0.768555	1.814513
0.769043	1.814478
0.769531	1.814505
0.770020	1.814302
0.770508	1.814234
0.770996	1.814512
0.771484	1.814535
0.771973	1.814547
0.772461	1.814572
0.772949	1.814650
0.773437	1.814540
0.773926	1.814546
0.774414	1.814435
0.774902	1.814520
0.775391	1.814422
0.775879	1.814429
0.776367	1.814460
0.776855	1.814444
0.777344	1.814575
0.777832	1.814361
0.778320	1.814206
0.778809	1.814366
0.779297	1.814359
0.779785	1.813966
0.780273	1.814188
0.780762	1.814090
0.781250	1.814165
0.781738	1.814166
0.782227	1.813983
0.782715	1.814034
0.783203	1.814192
0.783691	1.813830
0.784180	1.814124
0.784668	1.814170
0.785156	1.814175
0.785645	1.814135
0.786133	1.814133
0.786621	1.814082
0.787109	1.814188
0.787598	1.814000
0.788086	1.813810
0.788574	1.814145
0.789062	1.814116
0.789551	1.813948
0.790039	1.813992
0.790527	1.813979
0.791016	1.814048
0.791504	1.813822
0.791992	1.813974
0.792480	1.814101
0.792969	1.814160
0.793457	1.814102
0.793945	1.813995
0.794434	1.814345
0.794922	1.814198
0.795410	1.814064
0.795898	1.814100
0.796387	1.814110
0.796875	1.813921
0.797363	1.813966
0.797852	1.813980
0.798340	1.813951
0.798828	1.814100
0.799316	1.814000
0.799805	1.814093
0.800293	1.813926
0.800781	1.814084
0.801270	1.813910
0.801758	1.814267
0.802246	1.814083
0.802734	1.814042
0.803223	1.814362
0.803711	1.814103
0.804199	1.814439
0.804687	1.814295
0.805176	1.814266
0.805664	1.814330
0.806152	1.814253
0.806641	1.814429
0.807129	1.814401
0.807617	1.814429
0.808105	1.814294
0.808594	1.814516
0.809082	1.814402
0.809570	1.814319
0.810059	1.814638
0.810547	1.814757
0.811035	1.814514
0.811523	1.814575
0.812012	1.814696
0.812500	1.814555
0.812988	1.814617
0.813477	1.814652
0.813965	1.814476
0.814453	1.814549
0.814941	1.814331
0.815430	1.814330
0.815918	1.814473
0.816406	1.814245
0.816895	1.814483
0.817383	1.814383
0.817871	1.814364
0.818359	1.814173
0.818848	1.814240
0.819336	1.814160
0.819824	1.814349
0.820312	1.814089
0.820801	1.814146
0.821289	1.814273
0.821777	1.814228
0.822266	1.814197
0.822754	1.814184
0.823242	1.814353
0.823730	1.814307
0.824219	1.814289
0.824707	1.814250
0.825195	1.814109
0.825684	1.814357
0.826172	1.814343
0.826660	1.814431
0.827148	1.814488
0.827637	1.814300
0.828125	1.814560
0.828613	1.814068
0.829102	1.814272
0.829590	1.814206
0.830078	1.814064
0.830566	1.814407
0.831055	1.814113
0.831543	1.814435
0.832031	1.814298
0.832520	1.814229
0.833008	1.814064
0.833496	1.814142
0.833984	1.814116
0.834473	1.814333
0.834961	1.814223
0.835449	1.814111
0.835937	1.814215
0.836426	1.814096
0.836914	1.814571
0.837402	1.814247
0.837891	1.814230
0.838379	1.814300
0.838867	1.814034
0.839355	1.814065
0.839844	1.814203
0.840332	1.814194
0.840820	1.814192
0.841309	1.814137
0.841797	1.814104
0.842285	1.814040
0.842773	1.814070
0.843262	1.814278
0.843750	1.814009
0.844238	1.814130
0.844727	1.814253
0.845215	1.814082
0.845703	1.814013
0.846191	1.814320
0.846680	1.814059
0.847168	1.814702
0.847656	1.814324
0.848145	1.814234
0.848633	1.814298
0.849121	1.814292
0.849609	1.814432
0.850098	1.814518
0.850586	1.814435
0.851074	1.814494
0.851562	1.814588
0.852051	1.814358
0.852539	1.814439
0.853027	1.814441
0.853516	1.814442
0.854004	1.814509
0.854492	1.814628
0.854980	1.814671
0.855469	1.814446
0.855957	1.814675
0.856445	1.814547
0.856934	1.814676
0.857422	1.814640
0.857910	1.814748
0.858398	1.814733
0.858887	1.815199
0.859375	1.814966
0.859863	1.815150
0.860352	1.815080
0.860840	1.815133
0.861328	1.814993
0.861816	1.814925
0.862305	1.815011
0.862793	1.815079
0.863281	1.815012
0.863770	1.814912
0.864258	1.815201
0.864746	1.814948
0.865234	1.815104
0.865723	1.814877
0.866211	1.815080
0.866699	1.815081
0.867187	1.815192
0.867676	1.814871
0.868164	1.815141
0.868652	1.815050
0.869141	1.815261
0.869629	1.815172
0.870117	1.815133
0.870605	1.814923
0.871094	1.814868
0.871582	1.814950
0.872070	1.814574
0.872559	1.814888
0.873047	1.814871
0.873535	1.814776
0.874023	1.814662
0.874512	1.814965
0.875000	1.814694
0.875488	1.814868
0.875977	1.814932
0.876465	1.814774
0.876953	1.814929
0.877441	1.814823
0.877930	1.814687
0.878418	1.814732
0.878906	1.814613
0.879395	1.814283
0.879883	1.814607
0.880371	1.814414
0.880859	1.814519
0.881348	1.814240
0.881836	1.814676
0.882324	1.814371
0.882812	1.814864
0.883301	1.814588
0.883789	1.814555
0.884277	1.814499
0.884766	1.814500
0.885254	1.814585
0.885742	1.814512
0.886230	1.814391
0.886719	1.814535
0.887207	1.814582
0.887695	1.814468
0.888184	1.814470
0.888672	1.814120
0.889160	1.814431
0.889648	1.814351
0.890137	1.814258
0.890625	1.814295
0.891113	1.814250
0.891602	1.814317
0.892090	1.814381
0.892578	1.814344
0.893066	1.814339
0.893555	1.814557
0.894043	1.814776
0.894531	1.814433
0.895020	1.814568
0.895508	1.814371
0.895996	1.814345
0.896484	1.814372
0.896973	1.814619
0.897461	1.814242
0.897949	1.814207
0.898437	1.814534
0.898926	1.814312
0.899414	1.814317
0.899902	1.814250
0.900391	1.814189
0.900879	1.814647
0.901367	1.814112
0.901855	1.814417
0.902344	1.814547
0.902832	1.814432
0.903320	1.814119
0.903809	1.814550
0.904297	1.814346
0.904785	1.814570
0.905273	1.814583
0.905762	1.814447
0.906250	1.814450
0.906738	1.814849
0.907227	1.814596
0.907715	1.814701
0.908203	1.814676
0.908691	1.814857
0.909180	1.814475
0.909668	1.814822
0.910156	1.814767
0.910645	1.814701
0.911133	1.814746
0.911621	1.814729
0.912109	1.814824
0.912598	1.814911
0.913086	1.815082
0.913574	1.814888
0.914062	1.814979
0.914551	1.814904
0.915039	1.815062
0.915527	1.814743
0.916016	1.814908
0.916504	1.815101
0.916992	1.815278
0.917480	1.814999
0.917969	1.815260
0.918457	1.815015
0.918945	1.815014
0.919434	1.815137
0.919922	1.815082
0.920410	1.814749
0.920898	1.815094
0.921387	1.814691
0.921875	1.814892
0.922363	1.815093
0.922852	1.814890
0.923340	1.815053
0.923828	1.814953
0.924316	1.814808
0.924805	1.815037
0.925293	1.814931
0.925781	1.814735
0.926270	1.814729
0.926758	1.814726
0.927246	1.814776
0.927734	1.814742
0.928223	1.814707
0.928711	1.814743
0.929199	1.814646
0.929687	1.814865
0.930176	1.814554
0.930664	1.814497
0.931152	1.814399
0.931641	1.814402
0.932129	1.814432
0.932617	1.814719
0.933105	1.814502
0.933594	1.814522
0.934082	1.814773
0.934570	1.814667
0.935059	1.814735
0.935547	1.814590
0.936035	1.814601
0.936523	1.814623
0.937012	1.814795
0.937500	1.814536
0.937988	1.814646
0.938477	1.814328
0.938965	1.814410
0.939453	1.814495
0.939941	1.814395
0.940430	1.813995
0.940918	1.814203
0.941406	1.814124
0.941895	1.814173
0.942383	1.814341
0.942871	1.814033
0.943359	1.814417
0.943848	1.814331
0.944336	1.814218
0.944824	1.814535
0.945312	1.814339
0.945801	1.814400
0.946289	1.814361
0.946777	1.814630
0.947266	1.814656
0.947754	1.814342
0.948242	1.814237
0.948730	1.814127
0.949219	1.814453
0.949707	1.814305
0.950195	1.814364
0.950684	1.814410
0.951172	1.814320
0.951660	1.814124
0.952148	1.814533
0.952637	1.814129
0.953125	1.814097
0.953613	1.814273
0.954102	1.814248
0.954590	1.814053
0.955078	1.814551
0.955566	1.814345
0.956055	1.814535
0.956543	1.814590
0.957031	1.814323
0.957520	1.814352
0.958008	1.814348
0.958496	1.814348
0.958984	1.814432
0.959473	1.814499
0.959961	1.814557
0.960449	1.814564
0.960937	1.814642
0.961426	1.814651
0.961914	1.814681
0.962402	1.814735
0.962891	1.814634
0.963379	1.814748
0.963867	1.814610
0.964355	1.814716
0.964844	1.814628
0.965332	1.814317
0.965820	1.814507
0.966309	1.814313
0.966797	1.814541
0.967285	1.814398
0.967773	1.814647
0.968262	1.814791
0.968750	1.814475
0.969238	1.814725
0.969727	1.814389
0.970215	1.814215
0.970703	1.814698
0.971191	1.814374
0.971680	1.814779
0.972168	1.814590
0.972656	1.814577
0.973145	1.814340
0.973633	1.814632
0.974121	1.814192
0.974609	1.814053
0.975098	1.814206
0.975586	1.814097
0.976074	1.814026
0.976562	1.814261
0.977051	1.814101
0.977539	1.813930
0.978027	1.814266
0.978516	1.814121
0.979004	1.814022
0.979492	1.813951
0.979980	1.814048
0.980469	1.814030
0.980957	1.814382
0.981445	1.813880
0.981934	1.814003
0.982422	1.814000
0.982910	1.814004
0.983398	1.814004
0.983887	1.814136
0.984375	1.813865
0.984863	1.813948
0.985352	1.814029
0.985840	1.813948
0.986328	1.814026
0.986816	1.813944
0.987305	1.814206
0.987793	1.814209
0.988281	1.814291
0.988770	1.814063
0.989258	1.814230
0.989746	1.814154
0.990234	1.814223
0.990723	1.814229
0.991211	1.814206
0.991699	1.814430
0.992187	1.814298
0.992676	1.814458
0.993164	1.814426
0.993652	1.814289
0.994141	1.814353
0.994629	1.814380
0.995117	1.814337
0.995605	1.814208
0.996094	1.814484
0.996582	1.814218
0.997070	1.814354
0.997559	1.814460
0.998047	1.814612
0.998535	1.814463
0.999023	1.815045
0.999512	1.814683
1.000000	1.814999
1.000488	1.815035
1.000977	1.814775
1.001465	1.814817
1.001953	1.814918
1.002441	1.815040
1.002930	1.814932
1.003418	1.814856
1.003906	1.814836
1.004395	1.814956
1.004883	1.814980
1.005371	1.815163
1.005859	1.815030
1.006348	1.815157
1.006836	1.815020
1.007324	1.815078
1.007812	1.815075
1.008301	1.815066
1.008789	1.815238
1.009277	1.815039
1.009766	1.815458
1.010254	1.814938
1.010742	1.815349
1.011230	1.815435
1.011719	1.815158
1.012207	1.815432
1.012695	1.815319
1.013184	1.815545
1.013672	1.815126
1.014160	1.815013
1.014648	1.815287
1.015137	1.815179
1.015625	1.814989
1.016113	1.815092
1.016602	1.815284
1.017090	1.815072
1.017578	1.815263
1.018066	1.814937
1.018555	1.814879
1.019043	1.815070
1.019531	1.815018
1.020020	1.814839
1.020508	1.814906
1.020996	1.814707
1.021484	1.815009
1.021973	1.814422
1.022461	1.814723
1.022949	1.815020
1.023437	1.814718
1.023926	1.814833
1.024414	1.814785
1.024902	1.814810
1.025391	1.814720
1.025879	1.814687
1.026367	1.814772
1.026855	1.814790
1.027344	1.814684
1.027832	1.814635
1.028320	1.814486
1.028809	1.814655
1.029297	1.814637
1.029785	1.814294
1.030273	1.814599
1.030762	1.814543
1.031250	1.814516
1.031738	1.814552
1.032227	1.814491
1.032715	1.814452
1.033203	1.814474
1.033691	1.814472
1.034180	1.814426
1.034668	1.814320
1.035156	1.814245
1.035645	1.814100
1.036133	1.814345
1.036621	1.814115
1.037109	1.814349
1.037598	1.814196
1.038086	1.814237
1.038574	1.814281
1.039062	1.814239
1.039551	1.814038
1.040039	1.814168
1.040527	1.814109
1.041016	1.814161
1.041504	1.814192
1.041992	1.814110
1.042480	1.814021
1.042969	1.813952
1.043457	1.813909
1.043945	1.814071
1.044434	1.814130
1.044922	1.813990
1.045410	1.813970
1.045898	1.814159
1.046387	1.813968
1.046875	1.814085
1.047363	1.814149
1.047852	1.814088
1.048340	1.813983
1.048828	1.814245
1.049316	1.814157
1.049805	1.813935
1.050293	1.813862
1.050781	1.813724
1.051270	1.813619
1.051758	1.813855
1.052246	1.813946
1.052734	1.813774
1.053223	1.813842
1.053711	1.813899
1.054199	1.813913
1.054687	1.813763
1.055176	1.813873
1.055664	1.813812
1.056152	1.814070
1.056641	1.814122
1.057129	1.814132
1.057617	1.814093
1.058105	1.813893
1.058594	1.814264
1.059082	1.813894
1.059570	1.813981
1.060059	1.813667
1.060547	1.813620
1.061035	1.813623
1.061523	1.813838
1.062012	1.813835
1.062500	1.813841
1.062988	1.814070
1.063477	1.813758
1.063965	1.813862
1.064453	1.813691
1.064941	1.813855
1.065430	1.813597
1.065918	1.813865
1.066406	1.813912
1.066895	1.813668
1.067383	1.814085
1.067871	1.813724
1.068359	1.813729
1.068848	1.813827
1.069336	1.813842
1.069824	1.813646
1.070312	1.813362
1.070801	1.813655
1.071289	1.813818
1.071777	1.813713
1.072266	1.813629
1.072754	1.813558
1.073242	1.813769
1.073730	1.813509
1.074219	1.813611
1.074707	1.813502
1.075195	1.813371
1.075684	1.813384
1.076172	1.813560
1.076660	1.813368
1.077148	1.813549
1.077637	1.813474
1.078125	1.813340
1.078613	1.813410
1.079102	1.813667
1.079590	1.813524
1.080078	1.813416
1.080566	1.813389
1.081055	1.813090
1.081543	1.813393
1.082031	1.812952
1.082520	1.813184
1.083008	1.813357
1.083496	1.813043
1.083984	1.813315
1.084473	1.813398
1.084961	1.813433
1.085449	1.813220
1.085937	1.813425
1.086426	1.813262
1.086914	1.813305
1.087402	1.813377
1.087891	1.813269
1.088379	1.813550
1.088867	1.813504
1.089355	1.813347
1.089844	1.813668
1.090332	1.813505
1.090820	1.813517
1.091309	1.813503
1.091797	1.813645
1.092285	1.813231
1.092773	1.813716
1.093262	1.813423
1.093750	1.813577
1.094238	1.813767
1.094727	1.813636
1.095215	1.813563
1.095703	1.813792
1.096191	1.814031
1.096680	1.813979
1.097168	1.814082
1.097656	1.814029
1.098145	1.814105
1.098633	1.814144
1.099121	1.814322
1.099609	1.814018
1.100098	1.814399
1.100586	1.814316
1.101074	1.814167
1.101562	1.814288
1.102051	1.814257
1.102539	1.814292
1.103027	1.814621
1.103516	1.814497
1.104004	1.814414
1.104492	1.814527
1.104980	1.814723
1.105469	1.814718
1.105957	1.814693
1.106445	1.814786
1.106934	1.814878
1.107422	1.815013
1.107910	1.814885
1.108398	1.815085
1.108887	1.814923
1.109375	1.814824
1.109863	1.814879
1.110352	1.814810
1.110840	1.814724
1.111328	1.814524
1.111816	1.814719
1.112305	1.814738
1.112793	1.814732
1.113281	1.814820
1.113770	1.814884
1.114258	1.814862
1.114746	1.814781
1.115234	1.814883
1.115723	1.814903
1.116211	1.814852
1.116699	1.814892
1.117187	1.814919
1.117676	1.815108
1.118164	1.814729
1.118652	1.814889
1.119141	1.814858
1.119629	1.814676
1.120117	1.814690
1.120605	1.814737
1.121094	1.814471
1.121582	1.814809
1.122070	1.814581
1.122559	1.814347
1.123047	1.814531
1.123535	1.814557
1.124023	1.814350
1.124512	1.814219
1.125000	1.814361
1.125488	1.814269
1.125977	1.814508
1.126465	1.814201
1.126953	1.814300
1.127441	1.814315
1.127930	1.813982
1.128418	1.814184
1.128906	1.814309
1.129395	1.814107
1.129883	1.814168
1.130371	1.814175
1.130859	1.814023
1.131348	1.813976
1.131836	1.813907
1.132324	1.813852
1.132812	1.814045
1.133301	1.813987
1.133789	1.813763
1.134277	1.813838
1.134766	1.813649
1.135254	1.813581
1.135742	1.813724
1.136230	1.813685
1.136719	1.813887
1.137207	1.813933
1.137695	1.814005
1.138184	1.813822
1.138672	1.813912
1.139160	1.813714
1.139648	1.813733
1.140137	1.813835
1.140625	1.813711
1.141113	1.813739
1.141602	1.813701
1.142090	1.813534
1.142578	1.813631
1.143066	1.813656
1.143555	1.813381
1.144043	1.813574
1.144531	1.813652
1.145020	1.813599
1.145508	1.813522
1.145996	1.813673
1.146484	1.813649
1.146973	1.814002
1.147461	1.813696
1.147949	1.813860
1.148437	1.813758
1.148926	1.813917
1.149414	1.813849
1.149902	1.813956
1.150391	1.813752
1.150879	1.813714
1.151367	1.813898
1.151855	1.813893
1.152344	1.813951
1.152832	1.813918
1.153320	1.814078
1.153809	1.813957
1.154297	1.814026
1.154785	1.813890
1.155273	1.813918
1.155762	1.814196
1.156250	1.814057
1.156738	1.814143
1.157227	1.814420
1.157715	1.814063
1.158203	1.814170
1.158691	1.814428
1.159180	1.814291
1.159668	1.814319
1.160156	1.814239
1.160645	1.814420
1.161133	1.814195
1.161621	1.814084
1.162109	1.814194
1.162598	1.813899
1.163086	1.814222
1.163574	1.814131
1.164062	1.814266
1.164551	1.814264
1.165039	1.814146
1.165527	1.814187
1.166016	1.814104
1.166504	1.814123
1.166992	1.813938
1.167480	1.814226
1.167969	1.814226
1.168457	1.814111
1.168945	1.814053
1.169434	1.814053
1.169922	1.814116
1.170410	1.814095
1.170898	1.813911
1.171387	1.814283
1.171875	1.814237
1.172363	1.814140
1.172852	1.814234
1.173340	1.814095
1.173828	1.814028
1.174316	1.814189
1.174805	1.813859
1.175293	1.814032
1.175781	1.814037
1.176270	1.813693
1.176758	1.813998
1.177246	1.814233
1.177734	1.814193
1.178223	1.814090
1.178711	1.814425
1.179199	1.814228
1.179687	1.813896
1.180176	1.814090
1.180664	1.813912
1.181152	1.814427
1.181641	1.814187
1.182129	1.814295
1.182617	1.814394
1.183105	1.814297
1.183594	1.814275
1.184082	1.814255
1.184570	1.814200
1.185059	1.814186
1.185547	1.814179
1.186035	1.814464
1.186523	1.814146
1.187012	1.814539
1.187500	1.814265
1.187988	1.813973
1.188477	1.814353
1.188965	1.814335
1.189453	1.814212
1.189941	1.814212
1.190430	1.814065
1.190918	1.813849
1.191406	1.814351
1.191895	1.814032
1.192383	1.814397
1.192871	1.814386
1.193359	1.814516
1.193848	1.814309
1.194336	1.814451
1.194824	1.814356
1.195312	1.814403
1.195801	1.814316
1.196289	1.814425
1.196777	1.814499
1.197266	1.814590
1.197754	1.814330
1.198242	1.814588
1.198730	1.814830
1.199219	1.814503
1.199707	1.814635
1.200195	1.814678
1.200684	1.814550
1.201172	1.814589
1.201660	1.814892
1.202148	1.814425
1.202637	1.815095
1.203125	1.814849
1.203613	1.814806
1.204102	1.814781
1.204590	1.814887
1.205078	1.814817
1.205566	1.814887
1.206055	1.814698
1.206543	1.814912
1.207031	1.814888
1.207520	1.814737
1.208008	1.814976
1.208496	1.814874
1.208984	1.814946
1.209473	1.814813
1.209961	1.814629
1.210449	1.814765
1.210937	1.814477
1.211426	1.814469
1.211914	1.814286
1.212402	1.814744
1.212891	1.814449
1.213379	1.814622
1.213867	1.814562
1.214355	1.814511
1.214844	1.814453
1.215332	1.814305
1.215820	1.814393
1.216309	1.814408
1.216797	1.814381
1.217285	1.814419
1.217773	1.814275
1.218262	1.814361
1.218750	1.814375
1.219238	1.814460
1.219727	1.814287
1.220215	1.814220
1.220703	1.813990
1.221191	1.814141
1.221680	1.814359
1.222168	1.814162
1.222656	1.814231
1.223145	1.814121
1.223633	1.814057
1.224121	1.814037
1.224609	1.814316
1.225098	1.813958
1.225586	1.813963
1.226074	1.813969
1.226562	1.813850
1.227051	1.814179
1.227539	1.814088
1.228027	1.814035
1.228516	1.814067
1.229004	1.814020
1.229492	1.814048
1.229980	1.814108
1.230469	1.813843
1.230957	1.814150
1.231445	1.814020
1.231934	1.814110
1.232422	1.813821
1.232910	1.813996
1.233398	1.813916
1.233887	1.814064
1.234375	1.813928
1.234863	1.813699
1.235352	1.814263
1.235840	1.813868
1.236328	1.813893
1.236816	1.814153
1.237305	1.814002
1.237793	1.813993
1.238281	1.813865
1.238770	1.813930
1.239258	1.813731
1.239746	1.813778
1.240234	1.813827
1.240723	1.813762
1.241211	1.813712
1.241699	1.813705
1.242187	1.813627
1.242676	1.813498
1.243164	1.813686
1.243652	1.813730
1.244141	1.813785
1.244629	1.813680
1.245117	1.813949
1.245605	1.813932
1.246094	1.813945
1.246582	1.814225
1.247070	1.814129
1.247559	1.813846
1.248047	1.814031
1.248535	1.814046
1.249023	1.813945
1.249512	1.813970
1.250000	1.814051
1.250488	1.813954
1.250977	1.813990
1.251465	1.814167
1.251953	1.813981
1.252441	1.814206
1.252930	1.814268
1.253418	1.814366
1.253906	1.814414
1.254395	1.814368
1.254883	1.814538
1.255371	1.814175
1.255859	1.814229
1.256348	1.814362
1.256836	1.814438
1.257324	1.814176
1.257812	1.814356
1.258301	1.814246
1.258789	1.814423
1.259277	1.814488
1.259766	1.814316
1.260254	1.814445
1.260742	1.814329
1.261230	1.814479
1.261719	1.814169
1.262207	1.814279
1.262695	1.814682
1.263184	1.814692
1.263672	1.814560
1.264160	1.814750
1.264648	1.814385
1.265137	1.814779
1.265625	1.814428
1.266113	1.814544
1.266602	1.814535
1.267090	1.814740
1.267578	1.814372
1.268066	1.814774
1.268555	1.814761
1.269043	1.814663
1.269531	1.814871
1.270020	1.814696
1.270508	1.814633
1.270996	1.814606
1.271484	1.814604
1.271973	1.814574
1.272461	1.814588
1.272949	1.814499
1.273437	1.814494
1.273926	1.814363
1.274414	1.814450
1.274902	1.814196
1.275391	1.814276
1.275879	1.814407
1.276367	1.814554
1.276855	1.814388
1.277344	1.814363
1.277832	1.814376
1.278320	1.814714
1.278809	1.814545
1.279297	1.814337
1.279785	1.814455
1.280273	1.814192
1.280762	1.814445
1.281250	1.814439
1.281738	1.814253
1.282227	1.814239
1.282715	1.814266
1.283203	1.814085
1.283691	1.814013
1.284180	1.814346
1.284668	1.814202
1.285156	1.814095
1.285645	1.814390
1.286133	1.814212
1.286621	1.814262
1.287109	1.814238
1.287598	1.814084
1.288086	1.814163
1.288574	1.814412
1.289062	1.814095
1.289551	1.813941
1.290039	1.814195
1.290527	1.813998
1.291016	1.814298
1.291504	1.814355
1.291992	1.814167
1.292480	1.814168
1.292969	1.814308
1.293457	1.814105
1.293945	1.814103
1.294434	1.814203
1.294922	1.814403
1.295410	1.814433
1.295898	1.814417
1.296387	1.814367
1.296875	1.814220
1.297363	1.814423
1.297852	1.814316
1.298340	1.814320
1.298828	1.814281
1.299316	1.814394
1.299805	1.814124
1.300293	1.814511
1.300781	1.814340
1.301270	1.814555
1.301758	1.814412
1.302246	1.814485
1.302734	1.814279
1.303223	1.814335
1.303711	1.814475
1.304199	1.814208
1.304687	1.814339
1.305176	1.814334
1.305664	1.814433
1.306152	1.814275
1.306641	1.814621
1.307129	1.814285
1.307617	1.814427
1.308105	1.814464
1.308594	1.814414
1.309082	1.814400
1.309570	1.814294
1.310059	1.814338
1.310547	1.814331
1.311035	1.814300
1.311523	1.814444
1.312012	1.814247
1.312500	1.814264
1.312988	1.814345
1.313477	1.814374
1.313965	1.814486
1.314453	1.814154
1.314941	1.814241
1.315430	1.814363
1.315918	1.813962
1.316406	1.814338
1.316895	1.814309
1.317383	1.814048
1.317871	1.814247
1.318359	1.814186
1.318848	1.814385
1.319336	1.814251
1.319824	1.814039
1.320312	1.814036
1.320801	1.814096
1.321289	1.814110
1.321777	1.813941
1.322266	1.814053
1.322754	1.814003
1.323242	1.814023
1.323730	1.813906
1.324219	1.813906
1.324707	1.813804
1.325195	1.813882
1.325684	1.813852
1.326172	1.813625
1.326660	1.813869
1.327148	1.813729
1.327637	1.813805
1.328125	1.813894
1.328613	1.814010
1.329102	1.814065
1.329590	1.813808
1.330078	1.813757
1.330566	1.813863
1.331055	1.813915
1.331543	1.813695
1.332031	1.813976
1.332520	1.813812
1.333008	1.813848
1.333496	1.813877
1.333984	1.813773
1.334473	1.813815
1.334961	1.813664
1.335449	1.813773
1.335937	1.813795
1.336426	1.813977
1.336914	1.813826
1.337402	1.813935
1.337891	1.813856
1.338379	1.814054
1.338867	1.813830
1.339355	1.814124
1.339844	1.814050
1.340332	1.813845
1.340820	1.813932
1.341309	1.813996
1.341797	1.814085
1.342285	1.814037
1.342773	1.813980
1.343262	1.813912
1.343750	1.814060
1.344238	1.814193
1.344727	1.814281
1.345215	1.814160
1.345703	1.814056
1.346191	1.814391
1.346680	1.814270
1.347168	1.814024
1.347656	1.814256
1.348145	1.813981
1.348633	1.814035
1.349121	1.814147
1.349609	1.814322
1.350098	1.814073
1.350586	1.814245
1.351074	1.814410
1.351562	1.814491
1.352051	1.814398
1.352539	1.814701
1.353027	1.814508
1.353516	1.814886
1.354004	1.814668
1.354492	1.814592
1.354980	1.814578
1.355469	1.814682
1.355957	1.814698
1.356445	1.814543
1.356934	1.814720
1.357422	1.814734
1.357910	1.814756
1.358398	1.814621
1.358887	1.814380
1.359375	1.814547
1.359863	1.814328
1.360352	1.814400
1.360840	1.814585
1.361328	1.814572
1.361816	1.814692
1.362305	1.814538
1.362793	1.814591
1.363281	1.814227
1.363770	1.814413
1.364258	1.814427
1.364746	1.814372
1.365234	1.814246
1.365723	1.814098
1.366211	1.814532
1.366699	1.814266
1.367187	1.814328
1.367676	1.814262
1.368164	1.814128
1.368652	1.814101
1.369141	1.814107
1.369629	1.814067
1.370117	1.813941
1.370605	1.814154
1.371094	1.814052
1.371582	1.814093
1.372070	1.814055
1.372559	1.813821
1.373047	1.813905
1.373535	1.813953
1.374023	1.813724
1.374512	1.813653
1.375000	1.814032
1.375488	1.814063
1.375977	1.813891
1.376465	1.814060
1.376953	1.814001
1.377441	1.813880
1.377930	1.813923
1.378418	1.814073
1.378906	1.814201
1.379395	1.813940
1.379883	1.814183
1.380371	1.814059
1.380859	1.814092
1.381348	1.813952
1.381836	1.814012
1.382324	1.814173
1.382812	1.814326
1.383301	1.814063
1.383789	1.814245
1.384277	1.813860
1.384766	1.814075
1.385254	1.813896
1.385742	1.813843
1.386230	1.814164
1.386719	1.814004
1.387207	1.813953
1.387695	1.814067
1.388184	1.813929
1.388672	1.814078
1.389160	1.813561
1.389648	1.814087
1.390137	1.814074
1.390625	1.814061
1.391113	1.813994
1.391602	1.813956
1.392090	1.814195
1.392578	1.814023
1.393066	1.814054
1.393555	1.814200
1.394043	1.814078
1.394531	1.814119
1.395020	1.814084
1.395508	1.813913
1.395996	1.814060
1.396484	1.814139
1.396973	1.814087
1.397461	1.813988
1.397949	1.814096
1.398437	1.814081
1.398926	1.814249
1.399414	1.814190
1.399902	1.814114
1.400391	1.814209
1.400879	1.814266
1.401367	1.814226
1.401855	1.814291
1.402344	1.814527
1.402832	1.814293
1.403320	1.814483
1.403809	1.814700
1.404297	1.814306
1.404785	1.814429
1.405273	1.814147
1.405762	1.814327
1.406250	1.814203
1.406738	1.813904
1.407227	1.814442
1.407715	1.814297
1.408203	1.814328
1.408691	1.814206
1.409180	1.814142
1.409668	1.814228
1.410156	1.814127
1.410645	1.814271
1.411133	1.814424
1.411621	1.814186
1.412109	1.814165
1.412598	1.814130
1.413086	1.814233
1.413574	1.814413
1.414062	1.814168
1.414551	1.814336
1.415039	1.814360
1.415527	1.814051
1.416016	1.814328
1.416504	1.814300
1.416992	1.814093
1.417480	1.814286
1.417969	1.814180
1.418457	1.813955
1.418945	1.814389
1.419434	1.814329
1.419922	1.814062
1.420410	1.814201
1.420898	1.814008
1.421387	1.814273
1.421875	1.813822
1.422363	1.813927
1.422852	1.814209
1.423340	1.814093
1.423828	1.814009
1.424316	1.814074
1.424805	1.814077
1.425293	1.813983
1.425781	1.814054
1.426270	1.814075
1.426758	1.814029
1.427246	1.813888
1.427734	1.813965
1.428223	1.813971
1.428711	1.813956
1.429199	1.813865
1.429687	1.814051
1.430176	1.813949
1.430664	1.814021
1.431152	1.813977
1.431641	1.814146
1.432129	1.813835
1.432617	1.814183
1.433105	1.814061
1.433594	1.813962
1.434082	1.813974
1.434570	1.813792
1.435059	1.813987
1.435547	1.813925
1.436035	1.813822
1.436523	1.813928
1.437012	1.814039
1.437500	1.814004
1.437988	1.813912
1.438477	1.813961
1.438965	1.813852
1.439453	1.813763
1.439941	1.813715
1.440430	1.813895
1.440918	1.813988
1.441406	1.813788
1.441895	1.814178
1.442383	1.814047
1.442871	1.813999
1.443359	1.814056
1.443848	1.813966
1.444336	1.814184
1.444824	1.814157
1.445312	1.813996
1.445801	1.813941
1.446289	1.814193
1.446777	1.813916
1.447266	1.813923
1.447754	1.814093
1.448242	1.813879
1.448730	1.814182
1.449219	1.813937
1.449707	1.813927
1.450195	1.814013
1.450684	1.813843
1.451172	1.813979
1.451660	1.814157
1.452148	1.814325
1.452637	1.814468
1.453125	1.814334
1.453613	1.814414
1.454102	1.814450
1.454590	1.813929
1.455078	1.814168
1.455566	1.813936
1.456055	1.814104
1.456543	1.813949
1.457031	1.814120
1.457520	1.814050
1.458008	1.814171
1.458496	1.814097
1.458984	1.814112
1.459473	1.814030
1.459961	1.814191
1.460449	1.814001
1.460937	1.814203
1.461426	1.814212
1.461914	1.813959
1.462402	1.813952
1.462891	1.813874
1.463379	1.814186
1.463867	1.814014
1.464355	1.813930
1.464844	1.813804
1.465332	1.813962
1.465820	1.813815
1.466309	1.813694
1.466797	1.813762
1.467285	1.813882
1.467773	1.813771
1.468262	1.813551
1.468750	1.813805
1.469238	1.813672
1.469727	1.813375
1.470215	1.813456
1.470703	1.813627
1.471191	1.813390
1.471680	1.813580
1.472168	1.813441
1.472656	1.813149
1.473145	1.813209
1.473633	1.813170
1.474121	1.813270
1.474609	1.813290
1.475098	1.813130
1.475586	1.813242
1.476074	1.813252
1.476562	1.813103
1.477051	1.813356
1.477539	1.813312
1.478027	1.813348
1.478516	1.813375
1.479004	1.813282
1.479492	1.813539
1.479980	1.813282
1.480469	1.813370
1.480957	1.813289
1.481445	1.813232
1.481934	1.813381
1.482422	1.813422
1.482910	1.813289
1.483398	1.813243
1.483887	1.813049
1.484375	1.813239
1.484863	1.813032
1.485352	1.813248
1.485840	1.813293
1.486328	1.813186
1.486816	1.813534
1.487305	1.813206
1.487793	1.813208
1.488281	1.813409
1.488770	1.813547
1.489258	1.813539
1.489746	1.813376
1.490234	1.813794
1.490723	1.813938
1.491211	1.813334
1.491699	1.813711
1.492187	1.813417
1.492676	1.813597
1.493164	1.813611
1.493652	1.813695
1.494141	1.813574
1.494629	1.813958
1.495117	1.813819
1.495605	1.813768
1.496094	1.813893
1.496582	1.814042
1.497070	1.813887
1.497559	1.814276
1.498047	1.813948
1.498535	1.813914
1.499023	1.813966
1.499512	1.813845
1.500000	1.813984
1.500488	1.813884
1.500977	1.813896
1.501465	1.813828
1.501953	1.814079
1.502441	1.813903
1.502930	1.813940
1.503418	1.814040
1.503906	1.813897
1.504395	1.813932
1.504883	1.813920
1.505371	1.813972
1.505859	1.813930
1.506348	1.814178
1.506836	1.813962
1.507324	1.814195
1.507812	1.814191
1.508301	1.814052
1.508789	1.814045
1.509277	1.814164
1.509766	1.813889
1.510254	1.814195
1.510742	1.813879
1.511230	1.814156
1.511719	1.814410
1.512207	1.813939
1.512695	1.813909
1.513184	1.814034
1.513672	1.814120
1.514160	1.813943
1.514648	1.814176
1.515137	1.813958
1.515625	1.814115
1.516113	1.814099
1.516602	1.813950
1.517090	1.813995
1.517578	1.814274
1.518066	1.813880
1.518555	1.813829
1.519043	1.814104
1.519531	1.813788
1.520020	1.813747
1.520508	1.813657
1.520996	1.813674
1.521484	1.813848
1.521973	1.813591
1.522461	1.813688
1.522949	1.813605
1.523437	1.813711
1.523926	1.813639
1.524414	1.813618
1.524902	1.813599
1.525391	1.813605
1.525879	1.813658
1.526367	1.813502
1.526855	1.813838
1.527344	1.813758
1.527832	1.814123
1.528320	1.813880
1.528809	1.813721
1.529297	1.813666
1.529785	1.813565
1.530273	1.813683
1.530762	1.813603
1.531250	1.813519
1.531738	1.813539
1.532227	1.813644
1.532715	1.813647
1.533203	1.813993
1.533691	1.813744
1.534180	1.813855
1.534668	1.813954
1.535156	1.814026
1.535645	1.813915
1.536133	1.814006
1.536621	1.813946
1.537109	1.813852
1.537598	1.813944
1.538086	1.814082
1.538574	1.813964
1.539062	1.814034
1.539551	1.813832
1.540039	1.814152
1.540527	1.814061
1.541016	1.813973
1.541504	1.814145
1.541992	1.814206
1.542480	1.814033
1.542969	1.814180
1.543457	1.814440
1.543945	1.814396
1.544434	1.814304
1.544922	1.814386
1.545410	1.814060
1.545898	1.814205
1.546387	1.814402
1.546875	1.814447
1.547363	1.814432
1.547852	1.814618
1.548340	1.814571
1.548828	1.814533
1.549316	1.814400
1.549805	1.814476
1.550293	1.814410
1.550781	1.814657
1.551270	1.814572
1.551758	1.814267
1.552246	1.814355
1.552734	1.814420
1.553223	1.814521
1.553711	1.814283
1.554199	1.814375
1.554687	1.814305
1.555176	1.814427
1.555664	1.814240
1.556152	1.814509
1.556641	1.814289
1.557129	1.814583
1.557617	1.814411
1.558105	1.814416
1.558594	1.814333
1.559082	1.814387
1.559570	1.814188
1.560059	1.814154
1.560547	1.814335
1.561035	1.813874
1.561523	1.814098
1.562012	1.814059
1.562500	1.814009
1.562988	1.813963
1.563477	1.814167
1.563965	1.813936
1.564453	1.814524
1.564941	1.814165
1.565430	1.814306
1.565918	1.814272
1.566406	1.814377
1.566895	1.814207
1.567383	1.814283
1.567871	1.814070
1.568359	1.814120
1.568848	1.814193
1.569336	1.813969
1.569824	1.814266
1.570312	1.813848
1.570801	1.813938
1.571289	1.814039
1.571777	1.814022
1.572266	1.813948
1.572754	1.813951
1.573242	1.814079
1.573730	1.814062
1.574219	1.813960
1.574707	1.814205
1.575195	1.813882
1.575684	1.813844
1.576172	1.814031
1.576660	1.813776
1.577148	1.814071
1.577637	1.813891
1.578125	1.814146
1.578613	1.814120
1.579102	1.813533
1.579590	1.813806
1.580078	1.813447
1.580566	1.813498
1.581055	1.813406
1.581543	1.813687
1.582031	1.813433
1.582520	1.813788
1.583008	1.813872
1.583496	1.813888
1.583984	1.813752
1.584473	1.813763
1.584961	1.813624
1.585449	1.813559
1.585937	1.813799
1.586426	1.813616
1.586914	1.813616
1.587402	1.813876
1.587891	1.813765
1.588379	1.813719
1.588867	1.813932
1.589355	1.813765
1.589844	1.813438
1.590332	1.813552
1.590820	1.813649
1.591309	1.813570
1.591797	1.813456
1.592285	1.813494
1.592773	1.813780
1.593262	1.813540
1.593750	1.813750
1.594238	1.813728
1.594727	1.813728
1.595215	1.813570
1.595703	1.813625
1.596191	1.813615
1.596680	1.813511
1.597168	1.813694
1.597656	1.813612
1.598145	1.813603
1.598633	1.813693
1.599121	1.813786
1.599609	1.813703
1.600098	1.813748
1.600586	1.813703
1.601074	1.813605
1.601562	1.813841
1.602051	1.813447
1.602539	1.813774
1.603027	1.813913
1.603516	1.813713
1.604004	1.813746
1.604492	1.814104
1.604980	1.813784
1.605469	1.814000
1.605957	1.813911
1.606445	1.813824
1.606934	1.813949
1.607422	1.813694
1.607910	1.813773
1.608398	1.813724
1.608887	1.813739
1.609375	1.813777
1.609863	1.813943
1.610352	1.813772
1.610840	1.813972
1.611328	1.813999
1.611816	1.813545
1.612305	1.813655
1.612793	1.813731
1.613281	1.813782
1.613770	1.813673
1.614258	1.813707
1.614746	1.813661
1.615234	1.813852
1.615723	1.813676
1.616211	1.813794
1.616699	1.813556
1.617187	1.814102
1.617676	1.813734
1.618164	1.813694
1.618652	1.813604
1.619141	1.813473
1.619629	1.813488
1.620117	1.813780
1.620605	1.813642
1.621094	1.813435
1.621582	1.813797
1.622070	1.813672
1.622559	1.813671
1.623047	1.813664
1.623535	1.813312
1.624023	1.813549
1.624512	1.813767
1.625000	1.813602
1.625488	1.813848
1.625977	1.813788
1.626465	1.813804
1.626953	1.813749
1.627441	1.813807
1.627930	1.813649
1.628418	1.813714
1.628906	1.813585
1.629395	1.813847
1.629883	1.813703
1.630371	1.813530
1.630859	1.813625
1.631348	1.813725
1.631836	1.813959
1.632324	1.814012
1.632812	1.813876
1.633301	1.813966
1.633789	1.813961
1.634277	1.813851
1.634766	1.813847
1.635254	1.813599
1.635742	1.814034
1.636230	1.813813
1.636719	1.813995
1.637207	1.814045
1.637695	1.813961
1.638184	1.813885
1.638672	1.814106
1.639160	1.813807
1.639648	1.813867
1.640137	1.813860
1.640625	1.813860
1.641113	1.814154
1.641602	1.814248
1.642090	1.814242
1.642578	1.814294
1.643066	1.814413
1.643555	1.814273
1.644043	1.814395
1.644531	1.814541
1.645020	1.814447
1.645508	1.814419
1.645996	1.814390
1.646484	1.814284
1.646973	1.814554
1.647461	1.814550
1.647949	1.814286
1.648437	1.814411
1.648926	1.814665
1.649414	1.814330
1.649902	1.814449
1.650391	1.814561
1.650879	1.814441
1.651367	1.814937
1.651855	1.814703
1.652344	1.814746
1.652832	1.814730
1.653320	1.814561
1.653809	1.814747
1.654297	1.814734
1.654785	1.814699
1.655273	1.814654
1.655762	1.814778
1.656250	1.814585
1.656738	1.814692
1.657227	1.814629
1.657715	1.814671
1.658203	1.814597
1.658691	1.814666
1.659180	1.814522
1.659668	1.814561
1.660156	1.814616
1.660645	1.814514
1.661133	1.814777
1.661621	1.814612
1.662109	1.814653
1.662598	1.814568
1.663086	1.814519
1.663574	1.814410
1.664062	1.814660
1.664551	1.814622
1.665039	1.814841
1.665527	1.814751
1.666016	1.814486
1.666504	1.814491
1.666992	1.814637
1.667480	1.814339
1.667969	1.814279
1.668457	1.814048
1.668945	1.814222
1.669434	1.814074
1.669922	1.814488
1.670410	1.814286
1.670898	1.814090
1.671387	1.814490
1.671875	1.814431
1.672363	1.814439
1.672852	1.814388
1.673340	1.814404
1.673828	1.814318
1.674316	1.814618
1.674805	1.814246
1.675293	1.814376
1.675781	1.814159
1.676270	1.814183
1.676758	1.814217
1.677246	1.814189
1.677734	1.814263
1.678223	1.814038
1.678711	1.814046
1.679199	1.814035
1.679687	1.814053
1.680176	1.814347
1.680664	1.813760
1.681152	1.814205
1.681641	1.814190
1.682129	1.814052
1.682617	1.814164
1.683105	1.814280
1.683594	1.813922
1.684082	1.814118
1.684570	1.814161
1.685059	1.814037
1.685547	1.814231
1.686035	1.814138
1.686523	1.814151
1.687012	1.813887
1.687500	1.814051
1.687988	1.814064
1.688477	1.813981
1.688965	1.814167
1.689453	1.813704
1.689941	1.813880
1.690430	1.814040
1.690918	1.814006
1.691406	1.814179
1.691895	1.814143
1.692383	1.814577
1.692871	1.814528
1.693359	1.814486
1.693848	1.814325
1.694336	1.814519
1.694824	1.814417
1.695312	1.814522
1.695801	1.814573
1.696289	1.814159
1.696777	1.814767
1.697266	1.814662
1.697754	1.814510
1.698242	1.814626
1.698730	1.814651
1.699219	1.814522
1.699707	1.814595
1.700195	1.814424
1.700684	1.814684
1.701172	1.814617
1.701660	1.814520
1.702148	1.814587
1.702637	1.814761
1.703125	1.814776
1.703613	1.814628
1.704102	1.814845
1.704590	1.814905
1.705078	1.814497
1.705566	1.814637
1.706055	1.814719
1.706543	1.814570
1.707031	1.814752
1.707520	1.814741
1.708008	1.814950
1.708496	1.814707
1.708984	1.814607
1.709473	1.814693
1.709961	1.814451
1.710449	1.814642
1.710937	1.814449
1.711426	1.814679
1.711914	1.814424
1.712402	1.814431
1.712891	1.814449
1.713379	1.814167
1.713867	1.814409
1.714355	1.814321
1.714844	1.814449
1.715332	1.814651
1.715820	1.814363
1.716309	1.814091
1.716797	1.814539
1.717285	1.814551
1.717773	1.814031
1.718262	1.814264
1.718750	1.814641
1.719238	1.814431
1.719727	1.814467
1.720215	1.814292
1.720703	1.814282
1.721191	1.814324
1.721680	1.814259
1.722168	1.814084
1.722656	1.814073
1.723145	1.814028
1.723633	1.813957
1.724121	1.814255
1.724609	1.814015
1.725098	1.814081
1.725586	1.814181
1.726074	1.813985
1.726562	1.814081
1.727051	1.814282
1.727539	1.814011
1.728027	1.813764
1.728516	1.814176
1.729004	1.813931
1.729492	1.814089
1.729980	1.814064
1.730469	1.814145
1.730957	1.813894
1.731445	1.813938
1.731934	1.814054
1.732422	1.814154
1.732910	1.813914
1.733398	1.813942
1.733887	1.814092
1.734375	1.813625
1.734863	1.813830
1.735352	1.813682
1.735840	1.813815
1.736328	1.813577
1.736816	1.813872
1.737305	1.813813
1.737793	1.813688
1.738281	1.813965
1.738770	1.813890
1.739258	1.813966
1.739746	1.813879
1.740234	1.813857
1.740723	1.813979
1.741211	1.814030
1.741699	1.813965
1.742187	1.813988
1.742676	1.814050
1.743164	1.814058
1.743652	1.814040
1.744141	1.814157
1.744629	1.813975
1.745117	1.814049
1.745605	1.814231
1.746094	1.814339
1.746582	1.814084
1.747070	1.814417
1.747559	1.814209
1.748047	1.814195
1.748535	1.814204
1.749023	1.814162
1.749512	1.814308
1.750000	1.814153
1.750488	1.814258
1.750977	1.814399
1.751465	1.814299
1.751953	1.814150
1.752441	1.814448
1.752930	1.814285
1.753418	1.814355
1.753906	1.814326
1.754395	1.814178
1.754883	1.814234
1.755371	1.814220
1.755859	1.814104
1.756348	1.814099
1.756836	1.814165
1.757324	1.814150
1.757812	1.814139
1.758301	1.814427
1.758789	1.814002
1.759277	1.813924
1.759766	1.814180
1.760254	1.814065
1.760742	1.814136
1.761230	1.814022
1.761719	1.814358
1.762207	1.814371
1.762695	1.813929
1.763184	1.814198
1.763672	1.814048
1.764160	1.814112
1.764648	1.814039
1.765137	1.814156
1.765625	1.813946
1.766113	1.814030
1.766602	1.814151
1.767090	1.814290
1.767578	1.814162
1.768066	1.814211
1.768555	1.814062
1.769043	1.814249
1.769531	1.814133
1.770020	1.814205
1.770508	1.813936
1.770996	1.813867
1.771484	1.813982
1.771973	1.813821
1.772461	1.814062
1.772949	1.813968
1.773437	1.814018
1.773926	1.813906
1.774414	1.813671
1.774902	1.813916
1.775391	1.813827
1.775879	1.813667
1.776367	1.814045
1.776855	1.814017
1.777344	1.814161
1.777832	1.814248
1.778320	1.814322
1.778809	1.814262
1.779297	1.814345
1.779785	1.814444
1.780273	1.814248
1.780762	1.814389
1.781250	1.814471
1.781738	1.813819
1.782227	1.814287
1.782715	1.814330
1.783203	1.814205
1.783691	1.814199
1.784180	1.814127
1.784668	1.814520
1.785156	1.814010
1.785645	1.813947
1.786133	1.814184
1.786621	1.814098
1.787109	1.814105
1.787598	1.814198
1.788086	1.814351
1.788574	1.814340
1.789062	1.814454
1.789551	1.814436
1.790039	1.814513
1.790527	1.814501
1.791016	1.814629
1.791504	1.814647
1.791992	1.814577
1.792480	1.814542
1.792969	1.814586
1.793457	1.814456
1.793945	1.814665
1.794434	1.814734
1.794922	1.814766
1.795410	1.814811
1.795898	1.814669
1.796387	1.814979
1.796875	1.815041
1.797363	1.814961
1.797852	1.815096
1.798340	1.815038
1.798828	1.814972
1.799316	1.815070
1.799805	1.815333
1.800293	1.815169
1.800781	1.815049
1.801270	1.815136
1.801758	1.815080
1.802246	1.815176
1.802734	1.815206
1.803223	1.815065
1.803711	1.815220
1.804199	1.815148
1.804687	1.815114
1.805176	1.815106
1.805664	1.815248
1.806152	1.815068
1.806641	1.815102
1.807129	1.815070
1.807617	1.815056
1.808105	1.815096
1.808594	1.814987
1.809082	1.815073
1.809570	1.815318
1.810059	1.814972
1.810547	1.815205
1.811035	1.815122
1.811523	1.815281
1.812012	1.815324
1.812500	1.815025
1.812988	1.814853
1.813477	1.815044
1.813965	1.815039
1.814453	1.814828
1.814941	1.814840
1.815430	1.814898
1.815918	1.814824
1.816406	1.814832
1.816895	1.814896
1.817383	1.814920
1.817871	1.814662
1.818359	1.814535
1.818848	1.814560
1.819336	1.814450
1.819824	1.814578
1.820312	1.814467
1.820801	1.814658
1.821289	1.814588
1.821777	1.814409
1.822266	1.814662
1.822754	1.814478
1.823242	1.814480
1.823730	1.814686
1.824219	1.814334
1.824707	1.814417
1.825195	1.814544
1.825684	1.814314
1.826172	1.814460
1.826660	1.814435
1.827148	1.814558
1.827637	1.814545
1.828125	1.814511
1.828613	1.814558
1.829102	1.814461
1.829590	1.814449
1.830078	1.814240
1.830566	1.814679
1.831055	1.814568
1.831543	1.814386
1.832031	1.814292
1.832520	1.814356
1.833008	1.814336
1.833496	1.814370
1.833984	1.814532
1.834473	1.814169
1.834961	1.814363
1.835449	1.814064
1.835937	1.814283
1.836426	1.814224
1.836914	1.814366
1.837402	1.814442
1.837891	1.814319
1.838379	1.814634
1.838867	1.814516
1.839355	1.814627
1.839844	1.814200
1.840332	1.814353
1.840820	1.814280
1.841309	1.814327
1.841797	1.814120
1.842285	1.814272
1.842773	1.814234
1.843262	1.814186
1.843750	1.814490
1.844238	1.814316
1.844727	1.814458
1.845215	1.814400
1.845703	1.814492
1.846191	1.814509
1.846680	1.814700
1.847168	1.814561
1.847656	1.814588
1.848145	1.814606
1.848633	1.814616
1.849121	1.814524
1.849609	1.814597
1.850098	1.814508
1.850586	1.814335
1.851074	1.814497
1.851562	1.814630
1.852051	1.814516
1.852539	1.814514
1.853027	1.814680
1.853516	1.814656
1.854004	1.814766
1.854492	1.814476
1.854980	1.814596
1.855469	1.814515
1.855957	1.814583
1.856445	1.814554
1.856934	1.814538
1.857422	1.814490
1.857910	1.814583
1.858398	1.814453
1.858887	1.814455
1.859375	1.814431
1.859863	1.814777
1.860352	1.814687
1.860840	1.814669
1.861328	1.814900
1.861816	1.814659
1.862305	1.814639
1.862793	1.814501
1.863281	1.814525
1.863770	1.814749
1.864258	1.814462
1.864746	1.814696
1.865234	1.814579
1.865723	1.814585
1.866211	1.814449
1.866699	1.814447
1.867187	1.814420
1.867676	1.814535
1.868164	1.814342
1.868652	1.814326
1.869141	1.814386
1.869629	1.814411
1.870117	1.814441
1.870605	1.814445
1.871094	1.814592
1.871582	1.814551
1.872070	1.814505
1.872559	1.814481
1.873047	1.814561
1.873535	1.814386
1.874023	1.814479
1.874512	1.814364
1.875000	1.814492
1.875488	1.814597
1.875977	1.814608
1.876465	1.814591
1.876953	1.814564
1.877441	1.814806
1.877930	1.814687
1.878418	1.814818
1.878906	1.814740
1.879395	1.814753
1.879883	1.814651
1.880371	1.814289
1.880859	1.814718
1.881348	1.814511
1.881836	1.814595
1.882324	1.814447
1.882812	1.814632
1.883301	1.815018
1.883789	1.814352
1.884277	1.814576
1.884766	1.814640
1.885254	1.814490
1.885742	1.814666
1.886230	1.814706
1.886719	1.814712
1.887207	1.814900
1.887695	1.814886
1.888184	1.814846
1.888672	1.814918
1.889160	1.814851
1.889648	1.814928
1.890137	1.814860
1.890625	1.814921
1.891113	1.814697
1.891602	1.814644
1.892090	1.814838
1.892578	1.814748
1.893066	1.814900
1.893555	1.814814
1.894043	1.814644
1.894531	1.814879
1.895020	1.815116
1.895508	1.814881
1.895996	1.814926
1.896484	1.815069
1.896973	1.814911
1.897461	1.815121
1.897949	1.815101
1.898437	1.815124
1.898926	1.814986
1.899414	1.815017
1.899902	1.814937
1.900391	1.814761
1.900879	1.815134
1.901367	1.814767
1.901855	1.814912
1.902344	1.814931
1.902832	1.815087
1.903320	1.814668
1.903809	1.815060
1.904297	1.815078
1.904785	1.814934
1.905273	1.814796
1.905762	1.815137
1.906250	1.815031
1.906738	1.814981
1.907227	1.815011
1.907715	1.815070
1.908203	1.814961
1.908691	1.815048
1.909180	1.814865
1.909668	1.814742
1.910156	1.814854
1.910645	1.814849
1.911133	1.814559
1.911621	1.814635
1.912109	1.814619
1.912598	1.814485
1.913086	1.814615
1.913574	1.814421
1.914062	1.814299
1.914551	1.814363
1.915039	1.814345
1.915527	1.814190
1.916016	1.814418
1.916504	1.814064
1.916992	1.814290
1.917480	1.814056
1.917969	1.813975
1.918457	1.814009
1.918945	1.813907
1.919434	1.814062
1.919922	1.813879
1.920410	1.814115
1.920898	1.814198
1.921387	1.813932
1.921875	1.814085
1.922363	1.813897
1.922852	1.814094
1.923340	1.813970
1.923828	1.813969
1.924316	1.813758
1.924805	1.814044
1.925293	1.813939
1.925781	1.813968
1.926270	1.813729
1.926758	1.813988
1.927246	1.814062
1.927734	1.814006
1.928223	1.813921
1.928711	1.814088
1.929199	1.813908
1.929687	1.814259
1.930176	1.814083
1.930664	1.814008
1.931152	1.813894
1.931641	1.813863
1.932129	1.813804
1.932617	1.813702
1.933105	1.813720
1.933594	1.813794
1.934082	1.813812
1.934570	1.813869
1.935059	1.814059
1.935547	1.813902
1.936035	1.814172
1.936523	1.814163
1.937012	1.814350
1.937500	1.814272
1.937988	1.814258
1.938477	1.814249
1.938965	1.814495
1.939453	1.814375
1.939941	1.814156
1.940430	1.814275
1.940918	1.814157
1.941406	1.814143
1.941895	1.814037
1.942383	1.814315
1.942871	1.814182
1.943359	1.814439
1.943848	1.814270
1.944336	1.814388
1.944824	1.814441
1.945312	1.814407
1.945801	1.814463
1.946289	1.814590
1.946777	1.814433
1.947266	1.814563
1.947754	1.814615
1.948242	1.814447
1.948730	1.814688
1.949219	1.814463
1.949707	1.814339
1.950195	1.814479
1.950684	1.814490
1.951172	1.814276
1.951660	1.814532
1.952148	1.814453
1.952637	1.814492
1.953125	1.814426
1.953613	1.814368
1.954102	1.814314
1.954590	1.814638
1.955078	1.814358
1.955566	1.814431
1.956055	1.814518
1.956543	1.814617
1.957031	1.814279
1.957520	1.814606
1.958008	1.814380
1.958496	1.814323
1.958984	1.814434
1.959473	1.814572
1.959961	1.814431
1.960449	1.814368
1.960937	1.814463
1.961426	1.814276
1.961914	1.814198
1.962402	1.814151
1.962891	1.814156
1.963379	1.814420
1.963867	1.814178
1.964355	1.814361
1.964844	1.814296
1.965332	1.814334
1.965820	1.814020
1.966309	1.814125
1.966797	1.814209
1.967285	1.814275
1.967773	1.814267
1.968262	1.814502
1.968750	1.814056
1.969238	1.814053
1.969727	1.814338
1.970215	1.814294
1.970703	1.814414
1.971191	1.814089
1.971680	1.814448
1.972168	1.814352
1.972656	1.813935
1.973145	1.814184
1.973633	1.813968
1.974121	1.814130
1.974609	1.814193
1.975098	1.814126
1.975586	1.814336
1.976074	1.814284
1.976562	1.814168
1.977051	1.814095
1.977539	1.814258
1.978027	1.814214
1.978516	1.814283
1.979004	1.814563
1.979492	1.814278
1.979980	1.814382
1.980469	1.814294
1.980957	1.814363
1.981445	1.814278
1.981934	1.814129
1.982422	1.814229
1.982910	1.814379
1.983398	1.814218
1.983887	1.814275
1.984375	1.814450
1.984863	1.814326
1.985352	1.814403
1.985840	1.814513
1.986328	1.814815
1.986816	1.814662
1.987305	1.814886
1.987793	1.814570
1.988281	1.814520
1.988770	1.814577
1.989258	1.814601
1.989746	1.814694
1.990234	1.814225
1.990723	1.814657
1.991211	1.814631
1.991699	1.814822
1.992187	1.814658
1.992676	1.814683
1.993164	1.814964
1.993652	1.814741
1.994141	1.814866
1.994629	1.815145
1.995117	1.815079
1.995605	1.815112
1.996094	1.815084
1.996582	1.815197
1.997070	1.815245
1.997559	1.815291
1.998047	1.814955
1.998535	1.814953
1.999023	1.814901
1.999512	1.814803
2.000000	1.814871
2.000488	1.814828
2.000977	1.814674
2.001465	1.814868
2.001953	1.814845
2.002441	1.814632
2.002930	1.814664
2.003418	1.814462
2.003906	1.814604
2.004395	1.814590
2.004883	1.814565
2.005371	1.814701
2.005859	1.814597
2.006348	1.814633
2.006836	1.814519
2.007324	1.814549
2.007812	1.814451
2.008301	1.814195
2.008789	1.814442
2.009277	1.814424
2.009766	1.814310
2.010254	1.814260
2.010742	1.814203
2.011230	1.814283
2.011719	1.813947
2.012207	1.814172
2.012695	1.814227
2.013184	1.814109
2.013672	1.813768
2.014160	1.814034
2.014648	1.813951
2.015137	1.813782
2.015625	1.814111
2.016113	1.813970
2.016602	1.813954
2.017090	1.813964
2.017578	1.813929
2.018066	1.813833
2.018555	1.813790
2.019043	1.813972
2.019531	1.814010
2.020020	1.814044
2.020508	1.813871
2.020996	1.814237
2.021484	1.813921
2.021973	1.813947
2.022461	1.813625
2.022949	1.813619
2.023437	1.813639
2.023926	1.813496
2.024414	1.813603
2.024902	1.813557
2.025391	1.813362
2.025879	1.813419
2.026367	1.813390
2.026855	1.813575
2.027344	1.813419
2.027832	1.813519
2.028320	1.813697
2.028809	1.813521
2.029297	1.813563
2.029785	1.813423
2.030273	1.813237
2.030762	1.813544
2.031250	1.813320
2.031738	1.813326
2.032227	1.813306
2.032715	1.813248
2.033203	1.813347
2.033691	1.813558
2.034180	1.813461
2.034668	1.813460
2.035156	1.813589
2.035645	1.813460
2.036133	1.813786
2.036621	1.813724
2.037109	1.813798
2.037598	1.813450
2.038086	1.814068
2.038574	1.813777
2.039062	1.814063
2.039551	1.813711
2.040039	1.813912
2.040527	1.813823
2.041016	1.813846
2.041504	1.814042
2.041992	1.813905
2.042480	1.813936
2.042969	1.814163
2.043457	1.814046
2.043945	1.814075
2.044434	1.814259
2.044922	1.814103
2.045410	1.814331
2.045898	1.814222
2.046387	1.814134
2.046875	1.814082
2.047363	1.814449
2.047852	1.814094
2.048340	1.814472
2.048828	1.814321
2.049316	1.814392
2.049805	1.814306
2.050293	1.814289
2.050781	1.814403
2.051270	1.814390
2.051758	1.814612
2.052246	1.814562
2.052734	1.814605
2.053223	1.814602
2.053711	1.814496
2.054199	1.814570
2.054687	1.814485
2.055176	1.814484
2.055664	1.814749
2.056152	1.814615
2.056641	1.814748
2.057129	1.814663
2.057617	1.814711
2.058105	1.814811
2.058594	1.814835
2.059082	1.814792
2.059570	1.814847
2.060059	1.814653
2.060547	1.814657
2.061035	1.814835
2.061523	1.814846
2.062012	1.814735
2.062500	1.814494
2.062988	1.814321
2.063477	1.814393
2.063965	1.814118
2.064453	1.814442
2.064941	1.814355
2.065430	1.814398
2.065918	1.814368
2.066406	1.814444
2.066895	1.814522
2.067383	1.814270
2.067871	1.814276
2.068359	1.814456
2.068848	1.814513
2.069336	1.814214
2.069824	1.814600
2.070312	1.814529
2.070801	1.814247
2.071289	1.814316
2.071777	1.814460
2.072266	1.814250
2.072754	1.814302
2.073242	1.814325
2.073730	1.814092
2.074219	1.814521
2.074707	1.814255
2.075195	1.814197
2.075684	1.814629
2.076172	1.814201
2.076660	1.814394
2.077148	1.814419
2.077637	1.814523
2.078125	1.814282
2.078613	1.814281
2.079102	1.814342
2.079590	1.814318
2.080078	1.814195
2.080566	1.814186
2.081055	1.813995
2.081543	1.814291
2.082031	1.814104
2.082520	1.814225
2.083008	1.814125
2.083496	1.814315
2.083984	1.814342
2.084473	1.814574
2.084961	1.814306
2.085449	1.814693
2.085937	1.814644
2.086426	1.814660
2.086914	1.814610
2.087402	1.814666
2.087891	1.814572
2.088379	1.814635
2.088867	1.814588
2.089355	1.814408
2.089844	1.814444
2.090332	1.814405
2.090820	1.814554
2.091309	1.814724
2.091797	1.814592
2.092285	1.814873
2.092773	1.814730
2.093262	1.814518
2.093750	1.814803
2.094238	1.814898
2.094727	1.814845
2.095215	1.814679
2.095703	1.814879
2.096191	1.814923
2.096680	1.814666
2.097168	1.815039
2.097656	1.814770
2.098145	1.814597
2.098633	1.814696
2.099121	1.814617
2.099609	1.814705
2.100098	1.814606
2.100586	1.814481
2.101074	1.814584
2.101562	1.814622
2.102051	1.814434
2.102539	1.814707
2.103027	1.814565
2.103516	1.814437
2.104004	1.814469
2.104492	1.814472
2.104980	1.814417
2.105469	1.814491
2.105957	1.814053
2.106445	1.814207
2.106934	1.814386
2.107422	1.814354
2.107910	1.814007
2.108398	1.814336
2.108887	1.814312
2.109375	1.814380
2.109863	1.814320
2.110352	1.814035
2.110840	1.814062
2.111328	1.814102
2.111816	1.813932
2.112305	1.813848
2.112793	1.814006
2.113281	1.814039
2.113770	1.813905
2.114258	1.814182
2.114746	1.813669
2.115234	1.813844
2.115723	1.813896
2.116211	1.813758
2.116699	1.813735
2.117187	1.813891
2.117676	1.813685
2.118164	1.813719
2.118652	1.814133
2.119141	1.813739
2.119629	1.814010
2.120117	1.813860
2.120605	1.813779
2.121094	1.813655
2.121582	1.813740
2.122070	1.813708
2.122559	1.813777
2.123047	1.813743
2.123535	1.813761
2.124023	1.813788
2.124512	1.813934
2.125000	1.813976
2.125488	1.813903
2.125977	1.813830
2.126465	1.813688
2.126953	1.813716
2.127441	1.813848
2.127930	1.813808
2.128418	1.813731
2.128906	1.813636
2.129395	1.813962
2.129883	1.813979
2.130371	1.813699
2.130859	1.813857
2.131348	1.813960
2.131836	1.813771
2.132324	1.814056
2.132812	1.813977
2.133301	1.813813
2.133789	1.814029
2.134277	1.813962
2.134766	1.814056
2.135254	1.814045
2.135742	1.814246
2.136230	1.814295
2.136719	1.814378
2.137207	1.814364
2.137695	1.814251
2.138184	1.814320
2.138672	1.814328
2.139160	1.814295
2.139648	1.814386
2.140137	1.814378
2.140625	1.814147
2.141113	1.814305
2.141602	1.814385
2.142090	1.814399
2.142578	1.814347
2.143066	1.814280
2.143555	1.814284
2.144043	1.814406
2.144531	1.814170
2.145020	1.814356
2.145508	1.814165
2.145996	1.814309
2.146484	1.814085
2.146973	1.814621
2.147461	1.814347
2.147949	1.813976
2.148437	1.814338
2.148926	1.813906
2.149414	1.813946
2.149902	1.814113
2.150391	1.814263
2.150879	1.814297
2.151367	1.814245
2.151855	1.814297
2.152344	1.814136
2.152832	1.813967
2.153320	1.813929
2.153809	1.813948
2.154297	1.813709
2.154785	1.813715
2.155273	1.813950
2.155762	1.813797
2.156250	1.813903
2.156738	1.813825
2.157227	1.813985
2.157715	1.813986
2.158203	1.814127
2.158691	1.813620
2.159180	1.813614
2.159668	1.813746
2.160156	1.813716
2.160645	1.813639
2.161133	1.813822
2.161621	1.813605
2.162109	1.813637
2.162598	1.813676
2.163086	1.813599
2.163574	1.813664
2.164062	1.813669
2.164551	1.813611
2.165039	1.813406
2.165527	1.813566
2.166016	1.813702
2.166504	1.813531
2.166992	1.813780
2.167480	1.813574
2.167969	1.813685
2.168457	1.813591
2.168945	1.813306
2.169434	1.813611
2.169922	1.813334
2.170410	1.813309
2.170898	1.813179
2.171387	1.813642
2.171875	1.813497
2.172363	1.813792
2.172852	1.813678
2.173340	1.813639
2.173828	1.813663
2.174316	1.813522
2.174805	1.813702
2.175293	1.813703
2.175781	1.813761
2.176270	1.813650
2.176758	1.813850
2.177246	1.813796
2.177734	1.813979
2.178223	1.813873
2.178711	1.813736
2.179199	1.813727
2.179687	1.813723
2.180176	1.813544
2.180664	1.813532
2.181152	1.813722
2.181641	1.813556
2.182129	1.813661
2.182617	1.814006
2.183105	1.813866
2.183594	1.813942
2.184082	1.814014
2.184570	1.814075
2.185059	1.814165
2.185547	1.814007
2.186035	1.814253
2.186523	1.814276
2.187012	1.814121
2.187500	1.814184
2.187988	1.814122
2.188477	1.814064
2.188965	1.813963
2.189453	1.814294
2.189941	1.814089
2.190430	1.814090
2.190918	1.814267
2.191406	1.814049
2.191895	1.814267
2.192383	1.814225
2.192871	1.814345
2.193359	1.814071
2.193848	1.813972
2.194336	1.814370
2.194824	1.814327
2.195312	1.814406
2.195801	1.814348
2.196289	1.814364
2.196777	1.814279
2.197266	1.814463
2.197754	1.814388
2.198242	1.814291
2.198730	1.814141
2.199219	1.814274
2.199707	1.814406
2.200195	1.814223
2.200684	1.814111
2.201172	1.814232
2.201660	1.814273
2.202148	1.814197
2.202637	1.814250
2.203125	1.814143
2.203613	1.814079
2.204102	1.814027
2.204590	1.814145
2.205078	1.814345
2.205566	1.814218
2.206055	1.814325
2.206543	1.814520
2.207031	1.814316
2.207520	1.814455
2.208008	1.814439
2.208496	1.814133
2.208984	1.814230
2.209473	1.814383
2.209961	1.814502
2.210449	1.814178
2.210937	1.814073
2.211426	1.814209
2.211914	1.814172
2.212402	1.814358
2.212891	1.814133
2.213379	1.814194
2.213867	1.814172
2.214355	1.814235
2.214844	1.814242
2.215332	1.814168
2.215820	1.814348
2.216309	1.814042
2.216797	1.814293
2.217285	1.814330
2.217773	1.814276
2.218262	1.813948
2.218750	1.814098
2.219238	1.814075
2.219727	1.814067
2.220215	1.814244
2.220703	1.813750
2.221191	1.813846
2.221680	1.813628
2.222168	1.813891
2.222656	1.813801
2.223145	1.813797
2.223633	1.813478
2.224121	1.813677
2.224609	1.813664
2.225098	1.813936
2.225586	1.813672
2.226074	1.813581
2.226562	1.813758
2.227051	1.813664
2.227539	1.813566
2.228027	1.813474
2.228516	1.813534
2.229004	1.813588
2.229492	1.813446
2.229980	1.813654
2.230469	1.813638
2.230957	1.813534
2.231445	1.813526
2.231934	1.813527
2.232422	1.813806
2.232910	1.813688
2.233398	1.813686
2.233887	1.813959
2.234375	1.813478
2.234863	1.813812
2.235352	1.813863
2.235840	1.813572
2.236328	1.814028
2.236816	1.813818
2.237305	1.814076
2.237793	1.814137
2.238281	1.814204
2.238770	1.814125
2.239258	1.814248
2.239746	1.814327
2.240234	1.814354
2.240723	1.814038
2.241211	1.814319
2.241699	1.814107
2.242187	1.814377
2.242676	1.814224
2.243164	1.814376
2.243652	1.814373
2.244141	1.814395
2.244629	1.814311
2.245117	1.814253
2.245605	1.814464
2.246094	1.814336
2.246582	1.814775
2.247070	1.814500
2.247559	1.814595
2.248047	1.814391
2.248535	1.814588
2.249023	1.814622
2.249512	1.814553
2.250000	1.814389
2.250488	1.814464
2.250977	1.814323
2.251465	1.814472
2.251953	1.814460
2.252441	1.814306
2.252930	1.814435
2.253418	1.814538
2.253906	1.814551
2.254395	1.814372
2.254883	1.814568
2.255371	1.814502
2.255859	1.814703
2.256348	1.814454
2.256836	1.814364
2.257324	1.814464
2.257812	1.814765
2.258301	1.814449
2.258789	1.814538
2.259277	1.814340
2.259766	1.814435
2.260254	1.814099
2.260742	1.814237
2.261230	1.814139
2.261719	1.814198
2.262207	1.814378
2.262695	1.814224
2.263184	1.814302
2.263672	1.814128
2.264160	1.814242
2.264648	1.814289
2.265137	1.814261
2.265625	1.814346
2.266113	1.814361
2.266602	1.814119
2.267090	1.814081
2.267578	1.814395
2.268066	1.814210
2.268555	1.814096
2.269043	1.814162
2.269531	1.814165
2.270020	1.814023
2.270508	1.814104
2.270996	1.814245
2.271484	1.813637
2.271973	1.814096
2.272461	1.814126
2.272949	1.814170
2.273437	1.814001
2.273926	1.814267
2.274414	1.814049
2.274902	1.814171
2.275391	1.814059
2.275879	1.814198
2.276367	1.814270
2.276855	1.814122
2.277344	1.814119
2.277832	1.814425
2.278320	1.814055
2.278809	1.814244
2.279297	1.814076
2.279785	1.814013
2.280273	1.813943
2.280762	1.814112
2.281250	1.814211
2.281738	1.814096
2.282227	1.814278
2.282715	1.814219
2.283203	1.814302
2.283691	1.814309
2.284180	1.814381
2.284668	1.814420
2.285156	1.814444
2.285645	1.814354
2.286133	1.814514
2.286621	1.814547
2.287109	1.814541
2.287598	1.814965
2.288086	1.814767
2.288574	1.814778
2.289062	1.814706
2.289551	1.815086
2.290039	1.814837
2.290527	1.814700
2.291016	1.814920
2.291504	1.814801
2.291992	1.814977
2.292480	1.814883
2.292969	1.815037
2.293457	1.815091
2.293945	1.814735
2.294434	1.814982
2.294922	1.815033
2.295410	1.814955
2.295898	1.815131
2.296387	1.815023
2.296875	1.815091
2.297363	1.815041
2.297852	1.815206
2.298340	1.814882
2.298828	1.814801
2.299316	1.814759
2.299805	1.814556
2.300293	1.814762
2.300781	1.814774
2.301270	1.814513
2.301758	1.814618
2.302246	1.814588
2.302734	1.814424
2.303223	1.814487
2.303711	1.814521
2.304199	1.814533
2.304687	1.814594
2.305176	1.814516
2.305664	1.814389
2.306152	1.814447
2.306641	1.814436
2.307129	1.814459
2.307617	1.814441
2.308105	1.814283
2.308594	1.814217
2.309082	1.814168
2.309570	1.813758
2.310059	1.814021
2.310547	1.814024
2.311035	1.813835
2.311523	1.813890
2.312012	1.814056
2.312500	1.814526
2.312988	1.813804
2.313477	1.814046
2.313965	1.814026
2.314453	1.813779
2.314941	1.813817
2.315430	1.813755
2.315918	1.814029
2.316406	1.813938
2.316895	1.813787
2.317383	1.813833
2.317871	1.813707
2.318359	1.813688
2.318848	1.813824
2.319336	1.813661
2.319824	1.813627
2.320312	1.813777
2.320801	1.813692
2.321289	1.813708
2.321777	1.813843
2.322266	1.813604
2.322754	1.813616
2.323242	1.813703
2.323730	1.813869
2.324219	1.813590
2.324707	1.813757
2.325195	1.814010
2.325684	1.813674
2.326172	1.813697
2.326660	1.813383
2.327148	1.813525
2.327637	1.813572
2.328125	1.813445
2.328613	1.813386
2.329102	1.813663
2.329590	1.813341
2.330078	1.813449
2.330566	1.813565
2.331055	1.813457
2.331543	1.813881
2.332031	1.813693
2.332520	1.813538
2.333008	1.813522
2.333496	1.813664
2.333984	1.813639
2.334473	1.813715
2.334961	1.813542
2.335449	1.813739
2.335937	1.813877
2.336426	1.813869
2.336914	1.813710
2.337402	1.813822
2.337891	1.813877
2.338379	1.813693
2.338867	1.813717
2.339355	1.813655
2.339844	1.813786
2.340332	1.813734
2.340820	1.813847
2.341309	1.813643
2.341797	1.813743
2.342285	1.813436
2.342773	1.813598
2.343262	1.813765
2.343750	1.813494
2.344238	1.813777
2.344727	1.813765
2.345215	1.813688
2.345703	1.813810
2.346191	1.814040
2.346680	1.813808
2.347168	1.813494
2.347656	1.813914
2.348145	1.813839
2.348633	1.813763
2.349121	1.813835
2.349609	1.813843
2.350098	1.813800
2.350586	1.813983
2.351074	1.813763
2.351562	1.813660
2.352051	1.813810
2.352539	1.813769
2.353027	1.813974
2.353516	1.813928
2.354004	1.813729
2.354492	1.813846
2.354980	1.813917
2.355469	1.813956
2.355957	1.813960
2.356445	1.814200
2.356934	1.813886
2.357422	1.813974
2.357910	1.813905
2.358398	1.813947
2.358887	1.813773
2.359375	1.814004
2.359863	1.813902
2.360352	1.814029
2.360840	1.814138
2.361328	1.814096
2.361816	1.814082
2.362305	1.813990
2.362793	1.814222
2.363281	1.814083
2.363770	1.814070
2.364258	1.814042
2.364746	1.814088
2.365234	1.814033
2.365723	1.813885
2.366211	1.814106
2.366699	1.813610
2.367187	1.813967
2.367676	1.814027
2.368164	1.813925
2.368652	1.813992
2.369141	1.813827
2.369629	1.813938
2.370117	1.813993
2.370605	1.814039
2.371094	1.814146
2.371582	1.814115
2.372070	1.814126
2.372559	1.814215
2.373047	1.814057
2.373535	1.814216
2.374023	1.814086
2.374512	1.814322
2.375000	1.814031
2.375488	1.814320
2.375977	1.814039
2.376465	1.813852
2.376953	1.814186
2.377441	1.814213
2.377930	1.814121
2.378418	1.813953
2.378906	1.814383
2.379395	1.814371
2.379883	1.814095
2.380371	1.814294
2.380859	1.814006
2.381348	1.814148
2.381836	1.814197
2.382324	1.814201
2.382812	1.814359
2.383301	1.814551
2.383789	1.814336
2.384277	1.814756
2.384766	1.814488
2.385254	1.814580
2.385742	1.814601
2.386230	1.814748
2.386719	1.814614
2.387207	1.814914
2.387695	1.814823
2.388184	1.814477
2.388672	1.814890
2.389160	1.814516
2.389648	1.814941
2.390137	1.814730
2.390625	1.814745
2.391113	1.815070
2.391602	1.814751
2.392090	1.814881
2.392578	1.814889
2.393066	1.814915
2.393555	1.814881
2.394043	1.814868
2.394531	1.814774
2.395020	1.814785
2.395508	1.814819
2.395996	1.814891
2.396484	1.815044
2.396973	1.814964
2.397461	1.814892
2.397949	1.815039
2.398437	1.814887
2.398926	1.815047
2.399414	1.814932
2.399902	1.814774
2.400391	1.814690
2.400879	1.814781
2.401367	1.814745
2.401855	1.814864
2.402344	1.814776
2.402832	1.814483
2.403320	1.814771
2.403809	1.814590
2.404297	1.814613
2.404785	1.814508
2.405273	1.814693
2.405762	1.814500
2.406250	1.814742
2.406738	1.814652
2.407227	1.814752
2.407715	1.814636
2.408203	1.814566
2.408691	1.814436
2.409180	1.814348
2.409668	1.814457
2.410156	1.814485
2.410645	1.814145
2.411133	1.814146
2.411621	1.814213
2.412109	1.814040
2.412598	1.814018
2.413086	1.813860
2.413574	1.814032
2.414062	1.813871
2.414551	1.813967
2.415039	1.813835
2.415527	1.813901
2.416016	1.813865
2.416504	1.813989
2.416992	1.813938
2.417480	1.813747
2.417969	1.813815
2.418457	1.813761
2.418945	1.813991
2.419434	1.813728
2.419922	1.813987
2.420410	1.813960
2.420898	1.813789
2.421387	1.814001
2.421875	1.813757
2.422363	1.813689
2.422852	1.813614
2.423340	1.813559
2.423828	1.813769
2.424316	1.813825
2.424805	1.813608
2.425293	1.813500
2.425781	1.813672
2.426270	1.813761
2.426758	1.814040
2.427246	1.813835
2.427734	1.813814
2.428223	1.813681
2.428711	1.813812
2.429199	1.813653
2.429687	1.813872
2.430176	1.813722
2.430664	1.813722
2.431152	1.814250
2.431641	1.813810
2.432129	1.814073
2.432617	1.813729
2.433105	1.813935
2.433594	1.813931
2.434082	1.813484
2.434570	1.813886
2.435059	1.813771
2.435547	1.813963
2.436035	1.813791
2.436523	1.814070
2.437012	1.813986
2.437500	1.814329
2.437988	1.814159
2.438477	1.814291
2.438965	1.814234
2.439453	1.814173
2.439941	1.814497
2.440430	1.814147
2.440918	1.814197
2.441406	1.814561
2.441895	1.814222
2.442383	1.814485
2.442871	1.814174
2.443359	1.814488
2.443848	1.814352
2.444336	1.814319
2.444824	1.814514
2.445312	1.814232
2.445801	1.814244
2.446289	1.814319
2.446777	1.814213
2.447266	1.814359
2.447754	1.814297
2.448242	1.814204
2.448730	1.814286
2.449219	1.814065
2.449707	1.814218
2.450195	1.813995
2.450684	1.814137
2.451172	1.814135
2.451660	1.814098
2.452148	1.814049
2.452637	1.814161
2.453125	1.814046
2.453613	1.813976
2.454102	1.814117
2.454590	1.814082
2.455078	1.814128
2.455566	1.813955
2.456055	1.814035
2.456543	1.813911
2.457031	1.814073
2.457520	1.813723
2.458008	1.813677
2.458496	1.813999
2.458984	1.813846
2.459473	1.813885
2.459961	1.814029
2.460449	1.813791
2.460937	1.813655
2.461426	1.813907
2.461914	1.813657
2.462402	1.813593
2.462891	1.814083
2.463379	1.813925
2.463867	1.813808
2.464355	1.813956
2.464844	1.813633
2.465332	1.813982
2.465820	1.813782
2.466309	1.813705
2.466797	1.813860
2.467285	1.814071
2.467773	1.813685
2.468262	1.813939
2.468750	1.814049
2.469238	1.813928
2.469727	1.814351
2.470215	1.813838
2.470703	1.813768
2.471191	1.813719
2.471680	1.813929
2.472168	1.813845
2.472656	1.813904
2.473145	1.813652
2.473633	1.813720
2.474121	1.813753
2.474609	1.813695
2.475098	1.813790
2.475586	1.813919
2.476074	1.813773
2.476562	1.813882
2.477051	1.814028
2.477539	1.813894
2.478027	1.814082
2.478516	1.814166
2.479004	1.814192
2.479492	1.813988
2.479980	1.814305
2.480469	1.814480
2.480957	1.814373
2.481445	1.814519
2.481934	1.814384
2.482422	1.814284
2.482910	1.814311
2.483398	1.814390
2.483887	1.814294
2.484375	1.814529
2.484863	1.814510
2.485352	1.814394
2.485840	1.814530
2.486328	1.814498
2.486816	1.814838
2.487305	1.814605
2.487793	1.814887
2.488281	1.814674
2.488770	1.814637
2.489258	1.814633
2.489746	1.814679
2.490234	1.814731
2.490723	1.814751
2.491211	1.814732
2.491699	1.814585
2.492187	1.814867
2.492676	1.814926
2.493164	1.814414
2.493652	1.814534
2.494141	1.814325
2.494629	1.814473
2.495117	1.814176
2.495605	1.814286
2.496094	1.814267
2.496582	1.814070
2.497070	1.814153
2.497559	1.814128
2.498047	1.814054
2.498535	1.814250
2.499023	1.814218
2.499512	1.814068
2.500000	1.814057
2.500488	1.814010
2.500977	1.814005
2.501465	1.813976
2.501953	1.813899
2.502441	1.813820
2.502930	1.813999
2.503418	1.813545
2.503906	1.813753
2.504395	1.813807
2.504883	1.813497
2.505371	1.813655
2.505859	1.813583
2.506348	1.813547
2.506836	1.813666
2.507324	1.813557
2.507812	1.813698
2.508301	1.813616
2.508789	1.813590
2.509277	1.813564
2.509766	1.813539
2.510254	1.813575
2.510742	1.813516
2.511230	1.813423
2.511719	1.813415
2.512207	1.813208
2.512695	1.813532
2.513184	1.813494
2.513672	1.813278
2.514160	1.813549
2.514648	1.813232
2.515137	1.813199
2.515625	1.813292
2.516113	1.813348
2.516602	1.813309
2.517090	1.812972
2.517578	1.813133
2.518066	1.813244
2.518555	1.813201
2.519043	1.813226
2.519531	1.813268
2.520020	1.813288
2.520508	1.813151
2.520996	1.813120
2.521484	1.813603
2.521973	1.813422
2.522461	1.813455
2.522949	1.813429
2.523437	1.813085
2.523926	1.813224
2.524414	1.813375
2.524902	1.813248
2.525391	1.813146
2.525879	1.813571
2.526367	1.813333
2.526855	1.813668
2.527344	1.813595
2.527832	1.813227
2.528320	1.813509
2.528809	1.813619
2.529297	1.813658
2.529785	1.813567
2.530273	1.813848
2.530762	1.813511
2.531250	1.813991
2.531738	1.813842
2.532227	1.813919
2.532715	1.814017
2.533203	1.813933
2.533691	1.813957
2.534180	1.814240
2.534668	1.813946
2.535156	1.814022
2.535645	1.814217
2.536133	1.814125
2.536621	1.814244
2.537109	1.814283
2.537598	1.814330
2.538086	1.814278
2.538574	1.814632
2.539062	1.814499
2.539551	1.814735
2.540039	1.814601
2.540527	1.814480
2.541016	1.814707
2.541504	1.814254
2.541992	1.814430
2.542480	1.814287
2.542969	1.814276
2.543457	1.814572
2.543945	1.814427
2.544434	1.814390
2.544922	1.814298
2.545410	1.814433
2.545898	1.814319
2.546387	1.814456
2.546875	1.814461
2.547363	1.814264
2.547852	1.814438
2.548340	1.814460
2.548828	1.814447
2.549316	1.814314
2.549805	1.814698
2.550293	1.814419
2.550781	1.814859
2.551270	1.814577
2.551758	1.814314
2.552246	1.814325
2.552734	1.814524
2.553223	1.814425
2.553711	1.814295
2.554199	1.814259
2.554687	1.814294
2.555176	1.814363
2.555664	1.814330
2.556152	1.814538
2.556641	1.814372
2.557129	1.814632
2.557617	1.814395
2.558105	1.814517
2.558594	1.814379
2.559082	1.814187
2.559570	1.814269
2.560059	1.814247
2.560547	1.814100
2.561035	1.814170
2.561523	1.814062
2.562012	1.813890
2.562500	1.814217
2.562988	1.814220
2.563477	1.814104
2.563965	1.814183
2.564453	1.814255
2.564941	1.814274
2.565430	1.814224
2.565918	1.814206
2.566406	1.814032
2.566895	1.814468
2.567383	1.814366
2.567871	1.814308
2.568359	1.814601
2.568848	1.814317
2.569336	1.814270
2.569824	1.814212
2.570312	1.814142
2.570801	1.814193
2.571289	1.814223
2.571777	1.814158
2.572266	1.814245
2.572754	1.814215
2.573242	1.814093
2.573730	1.814215
2.574219	1.814250
2.574707	1.813998
2.575195	1.814334
2.575684	1.814215
2.576172	1.814002
2.576660	1.814179
2.577148	1.814013
2.577637	1.814292
2.578125	1.814222
2.578613	1.814235
2.579102	1.814379
2.579590	1.814228
2.580078	1.814322
2.580566	1.813984
2.581055	1.814110
2.581543	1.814247
2.582031	1.813682
2.582520	1.814165
2.583008	1.814013
2.583496	1.814175
2.583984	1.814043
2.584473	1.814250
2.584961	1.814234
2.585449	1.814726
2.585937	1.814527
2.586426	1.814215
2.586914	1.814425
2.587402	1.814355
2.587891	1.814467
2.588379	1.814524
2.588867	1.814429
2.589355	1.814467
2.589844	1.814405
2.590332	1.814147
2.590820	1.813894
2.591309	1.814161
2.591797	1.813842
2.592285	1.813916
2.592773	1.814346
2.593262	1.814075
2.593750	1.814137
2.594238	1.814097
2.594727	1.814107
2.595215	1.814123
2.595703	1.814170
2.596191	1.813988
2.596680	1.814197
2.597168	1.813982
2.597656	1.814081
2.598145	1.814270
2.598633	1.814134
2.599121	1.813943
2.599609	1.814204
2.600098	1.814139
2.600586	1.813873
2.601074	1.814023
2.601562	1.813973
2.602051	1.813758
2.602539	1.813813
2.603027	1.813610
2.603516	1.813744
2.604004	1.813693
2.604492	1.813815
2.604980	1.813649
2.605469	1.813819
2.605957	1.813563
2.606445	1.813585
2.606934	1.813814
2.607422	1.813740
2.607910	1.813584
2.608398	1.813938
2.608887	1.813514
2.609375	1.813669
2.609863	1.813496
2.610352	1.813326
2.610840	1.813591
2.611328	1.813516
2.611816	1.813760
2.612305	1.813730
2.612793	1.813578
2.613281	1.813499
2.613770	1.813356
2.614258	1.813388
2.614746	1.813284
2.615234	1.813483
2.615723	1.813191
2.616211	1.813443
2.616699	1.813561
2.617187	1.813358
2.617676	1.813497
2.618164	1.813219
2.618652	1.813398
2.619141	1.813215
2.619629	1.813352
2.620117	1.813152
2.620605	1.813265
2.621094	1.813310
2.621582	1.813389
2.622070	1.813482
2.622559	1.813470
2.623047	1.813732
2.623535	1.813348
2.624023	1.813545
2.624512	1.813290
2.625000	1.813594
2.625488	1.813389
2.625977	1.813436
2.626465	1.813360
2.626953	1.813616
2.627441	1.813417
2.627930	1.813579
2.628418	1.813633
2.628906	1.813708
2.629395	1.813818
2.629883	1.813830
2.630371	1.813732
2.630859	1.813458
2.631348	1.813718
2.631836	1.813644
2.632324	1.813741
2.632812	1.813771
2.633301	1.813602
2.633789	1.813850
2.634277	1.813865
2.634766	1.813716
2.635254	1.813874
2.635742	1.814017
2.636230	1.814011
2.636719	1.814292
2.637207	1.814247
2.637695	1.814296
2.638184	1.814376
2.638672	1.814376
2.639160	1.814518
2.639648	1.814536
2.640137	1.814488
2.640625	1.814468
2.641113	1.814510
2.641602	1.814238
2.642090	1.814290
2.642578	1.814318
2.643066	1.814336
2.643555	1.814427
2.644043	1.814457
2.644531	1.814286
2.645020	1.814306
2.645508	1.814471
2.645996	1.814511
2.646484	1.814637
2.646973	1.814759
2.647461	1.814641
2.647949	1.814965
2.648437	1.814673
2.648926	1.814733
2.649414	1.815228
2.649902	1.814787
2.650391	1.815024
2.650879	1.815025
2.651367	1.814729
2.651855	1.814841
2.652344	1.814871
2.652832	1.814677
2.653320	1.814781
2.653809	1.814878
2.654297	1.814698
2.654785	1.814765
2.655273	1.814641
2.655762	1.814664
2.656250	1.814561
2.656738	1.814441
2.657227	1.814582
2.657715	1.814593
2.658203	1.814547
2.658691	1.814336
2.659180	1.814446
2.659668	1.814658
2.660156	1.814596
2.660645	1.814325
2.661133	1.814233
2.661621	1.814519
2.662109	1.814104
2.662598	1.814331
2.663086	1.814217
2.663574	1.814280
2.664062	1.814336
2.664551	1.814426
2.665039	1.814584
2.665527	1.814486
2.666016	1.814480
2.666504	1.814469
2.666992	1.814349
2.667480	1.814363
2.667969	1.814356
2.668457	1.814271
2.668945	1.814098
2.669434	1.814427
2.669922	1.814308
2.670410	1.814299
2.670898	1.814268
2.671387	1.814323
2.671875	1.814233
2.672363	1.814427
2.672852	1.814314
2.673340	1.814491
2.673828	1.814010
2.674316	1.813887
2.674805	1.814284
2.675293	1.814443
2.675781	1.814073
2.676270	1.814296
2.676758	1.814152
2.677246	1.814133
2.677734	1.814079
2.678223	1.814363
2.678711	1.814109
2.679199	1.814095
2.679687	1.814431
2.680176	1.814196
2.680664	1.814532
2.681152	1.814267
2.681641	1.814234
2.682129	1.814286
2.682617	1.814330
2.683105	1.814057
2.683594	1.814374
2.684082	1.814275
2.684570	1.814179
2.685059	1.814515
2.685547	1.814227
2.686035	1.814605
2.686523	1.814374
2.687012	1.814372
2.687500	1.814438
2.687988	1.814468
2.688477	1.814312
2.688965	1.814442
2.689453	1.814332
2.689941	1.814288
2.690430	1.814327
2.690918	1.814054
2.691406	1.814410
2.691895	1.814161
2.692383	1.814441
2.692871	1.814053
2.693359	1.814272
2.693848	1.814056
2.694336	1.814088
2.694824	1.814400
2.695312	1.814170
2.695801	1.813921
2.696289	1.814352
2.696777	1.813772
2.697266	1.813835
2.697754	1.814152
2.698242	1.813884
2.698730	1.814002
2.699219	1.813783
2.699707	1.814060
2.700195	1.813973
2.700684	1.813796
2.701172	1.813817
2.701660	1.813765
2.702148	1.813725
2.702637	1.813725
2.703125	1.813979
2.703613	1.813877
2.704102	1.813521
2.704590	1.813618
2.705078	1.813344
2.705566	1.813397
2.706055	1.813401
2.706543	1.813386
2.707031	1.813239
2.707520	1.813614
2.708008	1.813353
2.708496	1.813422
2.708984	1.813729
2.709473	1.813389
2.709961	1.813361
2.710449	1.813346
2.710937	1.813461
2.711426	1.813150
2.711914	1.813165
2.712402	1.813385
2.712891	1.813146
2.713379	1.813442
2.713867	1.813249
2.714355	1.813249
2.714844	1.813290
2.715332	1.813310
2.715820	1.813293
2.716309	1.813234
2.716797	1.813328
2.717285	1.813253
2.717773	1.813577
2.718262	1.813377
2.718750	1.813339
2.719238	1.813584
2.719727	1.813358
2.720215	1.813481
2.720703	1.813566
2.721191	1.813415
2.721680	1.813586
2.722168	1.813422
2.722656	1.813535
2.723145	1.813404
2.723633	1.813828
2.724121	1.813260
2.724609	1.813571
2.725098	1.813508
2.725586	1.813463
2.726074	1.813328
2.726562	1.813536
2.727051	1.813667
2.727539	1.813796
2.728027	1.813683
2.728516	1.813781
2.729004	1.813765
2.729492	1.813931
2.729980	1.813965
2.730469	1.814104
2.730957	1.814111
2.731445	1.813984
2.731934	1.814106
2.732422	1.813780
2.732910	1.814139
2.733398	1.814090
2.733887	1.814029
2.734375	1.814353
2.734863	1.814336
2.735352	1.814259
2.735840	1.814361
2.736328	1.814536
2.736816	1.814403
2.737305	1.814320
2.737793	1.814702
2.738281	1.814542
2.738770	1.814456
2.739258	1.814724
2.739746	1.814727
2.740234	1.814669
2.740723	1.814546
2.741211	1.814599
2.741699	1.814723
2.742187	1.814519
2.742676	1.814740
2.743164	1.814414
2.743652	1.814424
2.744141	1.814614
2.744629	1.814607
2.745117	1.814569
2.745605	1.814378
2.746094	1.814781
2.746582	1.814682
2.747070	1.814452
2.747559	1.814754
2.748047	1.814416
2.748535	1.814295
2.749023	1.814477
2.749512	1.814418
2.750000	1.814499
2.750488	1.814400
2.750977	1.814272
2.751465	1.814301
2.751953	1.814427
2.752441	1.814395
2.752930	1.814309
2.753418	1.814471
2.753906	1.814380
2.754395	1.814233
2.754883	1.814148
2.755371	1.814256
2.755859	1.814132
2.756348	1.814552
2.756836	1.814287
2.757324	1.814507
2.757812	1.814499
2.758301	1.814513
2.758789	1.814159
2.759277	1.814227
2.759766	1.814488
2.760254	1.814389
2.760742	1.814398
2.761230	1.814189
2.761719	1.814810
2.762207	1.814438
2.762695	1.814271
2.763184	1.814481
2.763672	1.814273
2.764160	1.814376
2.764648	1.814471
2.765137	1.814451
2.765625	1.814263
2.766113	1.814617
2.766602	1.814452
2.767090	1.814721
2.767578	1.814787
2.768066	1.814735
2.768555	1.814631
2.769043	1.814796
2.769531	1.814577
2.770020	1.814565
2.770508	1.814512
2.770996	1.814413
2.771484	1.814486
2.771973	1.814530
2.772461	1.814575
2.772949	1.814638
2.773437	1.814680
2.773926	1.814496
2.774414	1.814711
2.774902	1.814591
2.775391	1.814778
2.775879	1.814797
2.776367	1.814724
2.776855	1.814765
2.777344	1.815108
2.777832	1.814751
2.778320	1.814631
2.778809	1.814859
2.779297	1.814745
2.779785	1.814942
2.780273	1.814776
2.780762	1.814995
2.781250	1.814965
2.781738	1.814910
2.782227	1.814910
2.782715	1.815031
2.783203	1.814939
2.783691	1.814845
2.784180	1.814900
2.784668	1.815005
2.785156	1.815020
2.785645	1.814858
2.786133	1.814953
2.786621	1.814997
2.787109	1.814871
2.787598	1.815202
2.788086	1.814861
2.788574	1.814900
2.789062	1.815154
2.789551	1.814881
2.790039	1.814927
2.790527	1.814796
2.791016	1.814556
2.791504	1.814838
2.791992	1.814467
2.792480	1.814609
2.792969	1.814718
2.793457	1.814583
2.793945	1.814622
2.794434	1.814742
2.794922	1.814744
2.795410	1.814637
2.795898	1.814658
2.796387	1.814293
2.796875	1.814527
2.797363	1.814592
2.797852	1.814435
2.798340	1.814463
2.798828	1.814587
2.799316	1.814350
2.799805	1.814360
2.800293	1.814473
2.800781	1.814163
2.801270	1.814312
2.801758	1.814380
2.802246	1.814232
2.802734	1.814222
2.803223	1.814197
2.803711	1.814303
2.804199	1.814289
2.804687	1.814375
2.805176	1.813988
2.805664	1.814033
2.806152	1.814060
2.806641	1.814007
2.807129	1.813707
2.807617	1.813999
2.808105	1.813725
2.808594	1.813644
2.809082	1.813755
2.809570	1.813755
2.810059	1.813758
2.810547	1.813672
2.811035	1.813892
2.811523	1.813739
2.812012	1.813927
2.812500	1.813592
2.812988	1.813720
2.813477	1.813329
2.813965	1.813780
2.814453	1.813512
2.814941	1.813670
2.815430	1.813334
2.815918	1.813451
2.816406	1.813466
2.816895	1.813426
2.817383	1.813762
2.817871	1.813426
2.818359	1.813624
2.818848	1.813399
2.819336	1.813455
2.819824	1.813314
2.820312	1.813495
2.820801	1.813167
2.821289	1.813453
2.821777	1.812988
2.822266	1.813211
2.822754	1.813264
2.823242	1.813336
2.823730	1.813176
2.824219	1.813301
2.824707	1.813435
2.825195	1.813328
2.825684	1.813525
2.826172	1.813360
2.826660	1.813401
2.827148	1.813425
2.827637	1.813463
2.828125	1.813556
2.828613	1.813558
2.829102	1.813503
2.829590	1.813450
2.830078	1.813572
2.830566	1.813280
2.831055	1.813547
2.831543	1.813631
2.832031	1.813559
2.832520	1.813675
2.833008	1.813793
2.833496	1.813724
2.833984	1.813757
2.834473	1.813530
2.834961	1.813643
2.835449	1.813792
2.835937	1.813671
2.836426	1.813914
2.836914	1.813849
2.837402	1.814045
2.837891	1.814042
2.838379	1.814015
2.838867	1.814117
2.839355	1.814055
2.839844	1.814127
2.840332	1.814058
2.840820	1.813960
2.841309	1.814128
2.841797	1.814125
2.842285	1.814011
2.842773	1.814001
2.843262	1.814027
2.843750	1.813843
2.844238	1.813924
2.844727	1.813785
2.845215	1.813876
2.845703	1.813937
2.846191	1.813709
2.846680	1.814009
2.847168	1.814058
2.847656	1.813804
2.848145	1.814013
2.848633	1.814225
2.849121	1.813880
2.849609	1.813813
2.850098	1.814004
2.850586	1.813594
2.851074	1.813801
2.851562	1.813985
2.852051	1.813741
2.852539	1.814005
2.853027	1.813927
2.853516	1.813915
2.854004	1.813742
2.854492	1.813931
2.854980	1.813653
2.855469	1.813904
2.855957	1.813681
2.856445	1.813811
2.856934	1.813857
2.857422	1.813734
2.857910	1.813661
2.858398	1.813538
2.858887	1.813758
2.859375	1.813649
2.859863	1.813646
2.860352	1.813627
2.860840	1.813497
2.861328	1.813358
2.861816	1.813639
2.862305	1.813322
2.862793	1.813628
2.863281	1.813471
2.863770	1.813563
2.864258	1.813546
2.864746	1.813484
2.865234	1.813483
2.865723	1.813501
2.866211	1.813530
2.866699	1.813745
2.867187	1.813676
2.867676	1.813505
2.868164	1.813782
2.868652	1.813744
2.869141	1.813680
2.869629	1.813676
2.870117	1.813901
2.870605	1.813858
2.871094	1.813471
2.871582	1.813573
2.872070	1.813577
2.872559	1.813418
2.873047	1.813434
2.873535	1.813553
2.874023	1.813450
2.874512	1.813596
2.875000	1.813527
2.875488	1.813710
2.875977	1.813726
2.876465	1.813837
2.876953	1.813794
2.877441	1.813926
2.877930	1.813887
2.878418	1.813841
2.878906	1.813961
2.879395	1.813786
2.879883	1.814134
2.880371	1.813942
2.880859	1.814062
2.881348	1.814233
2.881836	1.814116
2.882324	1.813956
2.882812	1.814206
2.883301	1.814065
2.883789	1.814203
2.884277	1.814419
2.884766	1.814111
2.885254	1.814121
2.885742	1.814205
2.886230	1.814107
2.886719	1.813894
2.887207	1.814242
2.887695	1.814265
2.888184	1.814106
2.888672	1.814097
2.889160	1.814067
2.889648	1.814457
2.890137	1.813966
2.890625	1.813918
2.891113	1.813936
2.891602	1.813906
2.892090	1.813813
2.892578	1.814004
2.893066	1.814102
2.893555	1.813867
2.894043	1.814112
2.894531	1.813988
2.895020	1.813890
2.895508	1.813936
2.895996	1.813771
2.896484	1.813811
2.896973	1.813935
2.897461	1.814064
2.897949	1.814130
2.898437	1.813541
2.898926	1.813794
2.899414	1.813428
2.899902	1.813459
2.900391	1.813315
2.900879	1.813455
2.901367	1.813265
2.901855	1.813359
2.902344	1.813440
2.902832	1.813246
2.903320	1.813337
2.903809	1.813085
2.904297	1.813433
2.904785	1.813155
2.905273	1.813357
2.905762	1.813022
2.906250	1.813155
2.906738	1.813059
2.907227	1.813167
2.907715	1.813220
2.908203	1.813148
2.908691	1.813300
2.909180	1.813073
2.909668	1.813025
2.910156	1.812871
2.910645	1.812748
2.911133	1.812952
2.911621	1.812840
2.912109	1.813036
2.912598	1.813046
2.913086	1.813079
2.913574	1.812966
2.914062	1.812894
2.914551	1.813131
2.915039	1.812582
2.915527	1.812950
2.916016	1.813057
2.916504	1.812847
2.916992	1.812998
2.917480	1.813023
2.917969	1.813107
2.918457	1.813115
2.918945	1.813080
2.919434	1.812929
2.919922	1.812984
2.920410	1.813127
2.920898	1.812604
2.921387	1.813102
2.921875	1.812854
2.922363	1.813011
2.922852	1.812737
2.923340	1.813040
2.923828	1.812822
2.924316	1.812825
2.924805	1.813004
2.925293	1.813022
2.925781	1.813050
2.926270	1.813192
2.926758	1.813210
2.927246	1.813201
2.927734	1.813092
2.928223	1.813293
2.928711	1.813243
2.929199	1.813236
2.929687	1.813606
2.930176	1.813490
2.930664	1.813751
2.931152	1.813445
2.931641	1.813675
2.932129	1.813242
2.932617	1.813561
2.933105	1.813492
2.933594	1.813407
2.934082	1.813865
2.934570	1.813767
2.935059	1.813559
2.935547	1.813743
2.936035	1.813760
2.936523	1.813756
2.937012	1.813888
2.937500	1.813902
2.937988	1.813837
2.938477	1.813822
2.938965	1.813655
2.939453	1.813792
2.939941	1.813609
2.940430	1.813643
2.940918	1.813721
2.941406	1.813736
2.941895	1.813587
2.942383	1.813809
2.942871	1.813782
2.943359	1.813456
2.943848	1.813608
2.944336	1.813587
2.944824	1.813391
2.945312	1.813739
2.945801	1.813724
2.946289	1.813539
2.946777	1.813635
2.947266	1.813849
2.947754	1.813390
2.948242	1.813721
2.948730	1.813486
2.949219	1.813446
2.949707	1.813460
2.950195	1.813593
2.950684	1.813514
2.951172	1.813536
2.951660	1.813674
2.952148	1.813491
2.952637	1.813596
2.953125	1.813514
2.953613	1.813393
2.954102	1.813168
2.954590	1.813366
2.955078	1.813218
2.955566	1.813348
2.956055	1.813461
2.956543	1.813190
2.957031	1.813364
2.957520	1.813215
2.958008	1.813444
2.958496	1.813348
2.958984	1.813131
2.959473	1.813326
2.959961	1.813462
2.960449	1.813307
2.960937	1.813464
2.961426	1.813296
2.961914	1.813608
2.962402	1.813630
2.962891	1.813426
2.963379	1.813498
2.963867	1.813473
2.964355	1.813600
2.964844	1.813497
2.965332	1.813636
2.965820	1.813412
2.966309	1.813375
2.966797	1.813464
2.967285	1.813555
2.967773	1.813332
2.968262	1.813449
2.968750	1.813508
2.969238	1.813231
2.969727	1.813538
2.970215	1.813397
2.970703	1.813667
2.971191	1.813179
2.971680	1.812982
2.972168	1.813245
2.972656	1.813274
2.973145	1.813314
2.973633	1.813287
2.974121	1.813575
2.974609	1.813556
2.975098	1.813545
2.975586	1.813659
2.976074	1.813633
2.976562	1.813426
2.977051	1.813661
2.977539	1.813650
2.978027	1.813536
2.978516	1.813893
2.979004	1.813672
2.979492	1.813820
2.979980	1.813812
2.980469	1.813774
2.980957	1.813852
2.981445	1.813931
2.981934	1.813699
2.982422	1.813985
2.982910	1.813946
2.983398	1.813776
2.983887	1.813938
2.984375	1.813956
2.984863	1.813935
2.985352	1.814063
2.985840	1.814164
2.986328	1.814120
2.986816	1.814207
2.987305	1.814184
2.987793	1.814439
2.988281	1.814142
2.988770	1.814317
2.989258	1.814282
2.989746	1.814319
2.990234	1.814132
2.990723	1.814209
2.991211	1.814116
2.991699	1.814165
2.992187	1.813975
2.992676	1.813974
2.993164	1.814175
2.993652	1.813965
2.994141	1.814369
2.994629	1.814150
2.995117	1.813882
2.995605	1.814172
2.996094	1.814045
2.996582	1.814082
2.997070	1.814013
2.997559	1.814058
2.998047	1.814171
2.998535	1.814034
2.999023	1.814080
2.999512	1.814257
3.000000	1.814005
3.000488	1.813974
3.000977	1.814045
3.001465	1.814016
3.001953	1.813965
3.002441	1.813899
3.002930	1.814154
3.003418	1.813910
3.003906	1.813942
3.004395	1.814007
3.004883	1.813730
3.005371	1.814344
3.005859	1.813812
3.006348	1.813776
3.006836	1.814103
3.007324	1.814027
3.007812	1.813946
3.008301	1.813848
3.008789	1.814205
3.009277	1.814140
3.009766	1.814073
3.010254	1.813725
3.010742	1.813843
3.011230	1.813855
3.011719	1.813701
3.012207	1.813825
3.012695	1.813763
3.013184	1.813688
3.013672	1.813743
3.014160	1.813953
3.014648	1.813658
3.015137	1.814017
3.015625	1.813751
3.016113	1.813867
3.016602	1.814024
3.017090	1.813934
3.017578	1.813937
3.018066	1.814089
3.018555	1.814066
3.019043	1.813903
3.019531	1.813837
3.020020	1.813922
3.020508	1.813683
3.020996	1.813747
3.021484	1.813665
3.021973	1.813431
3.022461	1.814041
3.022949	1.813852
3.023437	1.813677
3.023926	1.814067
3.024414	1.813840
3.024902	1.814016
3.025391	1.813909
3.025879	1.814049
3.026367	1.813929
3.026855	1.814233
3.027344	1.814292
3.027832	1.814311
3.028320	1.814515
3.028809	1.814533
3.029297	1.814489
3.029785	1.814237
3.030273	1.814472
3.030762	1.814269
3.031250	1.814173
3.031738	1.814320
3.032227	1.814513
3.032715	1.814496
3.033203	1.814478
3.033691	1.814715
3.034180	1.814610
3.034668	1.814369
3.035156	1.814531
3.035645	1.814326
3.036133	1.814616
3.036621	1.814386
3.037109	1.814511
3.037598	1.814490
3.038086	1.814588
3.038574	1.814350
3.039062	1.814397
3.039551	1.814405
3.040039	1.814422
3.040527	1.814209
3.041016	1.814328
3.041504	1.814277
3.041992	1.814096
3.042480	1.814056
3.042969	1.814154
3.043457	1.814200
3.043945	1.814172
3.044434	1.814430
3.044922	1.814197
3.045410	1.814281
3.045898	1.814247
3.046387	1.814023
3.046875	1.814200
3.047363	1.814143
3.047852	1.814020
3.048340	1.814049
3.048828	1.813789
3.049316	1.813966
3.049805	1.813937
3.050293	1.813994
3.050781	1.813630
3.051270	1.813922
3.051758	1.813717
3.052246	1.813666
3.052734	1.813687
3.053223	1.813853
3.053711	1.813708
3.054199	1.813810
3.054687	1.813631
3.055176	1.813738
3.055664	1.813937
3.056152	1.813621
3.056641	1.813750
3.057129	1.813818
3.057617	1.813688
3.058105	1.813483
3.058594	1.813400
3.059082	1.813456
3.059570	1.813470
3.060059	1.813419
3.060547	1.813448
3.061035	1.813417
3.061523	1.813591
3.062012	1.813217
3.062500	1.813475
3.062988	1.813529
3.063477	1.813461
3.063965	1.813483
3.064453	1.813303
3.064941	1.813481
3.065430	1.813386
3.065918	1.813495
3.066406	1.813103
3.066895	1.813607
3.067383	1.813429
3.067871	1.813463
3.068359	1.813593
3.068848	1.813408
3.069336	1.813874
3.069824	1.813603
3.070312	1.813418
3.070801	1.813375
3.071289	1.813509
3.071777	1.813507
3.072266	1.813395
3.072754	1.813487
3.073242	1.813457
3.073730	1.813619
3.074219	1.813691
3.074707	1.813676
3.075195	1.813823
3.075684	1.813924
3.076172	1.813891
3.076660	1.814151
3.077148	1.813992
3.077637	1.814132
3.078125	1.814214
3.078613	1.813961
3.079102	1.813998
3.079590	1.813909
3.080078	1.813921
3.080566	1.813836
3.081055	1.814054
3.081543	1.813908
3.082031	1.814158
3.082520	1.814345
3.083008	1.814073
3.083496	1.814288
3.083984	1.814422
3.084473	1.814123
3.084961	1.814507
3.085449	1.814229
3.085937	1.814349
3.086426	1.814240
3.086914	1.814386
3.087402	1.814085
3.087891	1.814422
3.088379	1.814284
3.088867	1.814130
3.089355	1.814273
3.089844	1.814324
3.090332	1.813985
3.090820	1.814020
3.091309	1.814219
3.091797	1.813851
3.092285	1.814136
3.092773	1.813995
3.093262	1.814007
3.093750	1.814173
3.094238	1.813971
3.094727	1.814253
3.095215	1.813975
3.095703	1.814112
3.096191	1.814080
3.096680	1.814132
3.097168	1.813898
3.097656	1.814090
3.098145	1.814030
3.098633	1.813943
3.099121	1.813990
3.099609	1.813915
3.100098	1.813813
3.100586	1.813765
3.101074	1.813713
3.101562	1.813480
3.102051	1.813882
3.102539	1.813757
3.103027	1.813470
3.103516	1.813646
3.104004	1.813663
3.104492	1.813625
3.104980	1.813884
3.105469	1.813819
3.105957	1.813493
3.106445	1.813776
3.106934	1.813780
3.107422	1.813865
3.107910	1.813915
3.108398	1.813865
3.108887	1.813966
3.109375	1.813912
3.109863	1.813977
3.110352	1.813771
3.110840	1.813943
3.111328	1.813857
3.111816	1.813878
3.112305	1.813681
3.112793	1.813772
3.113281	1.813592
3.113770	1.813945
3.114258	1.813511
3.114746	1.813689
3.115234	1.813984
3.115723	1.813796
3.116211	1.813733
3.116699	1.813658
3.117187	1.813802
3.117676	1.813787
3.118164	1.813734
3.118652	1.813860
3.119141	1.813964
3.119629	1.813456
3.120117	1.813736
3.120605	1.813660
3.121094	1.813852
3.121582	1.813860
3.122070	1.813887
3.122559	1.813948
3.123047	1.813911
3.123535	1.813953
3.124023	1.813910
3.124512	1.814148
3.125000	1.814111
3.125488	1.814317
3.125977	1.813943
3.126465	1.814237
3.126953	1.814256
3.127441	1.814203
3.127930	1.814182
3.128418	1.814093
3.128906	1.814400
3.129395	1.814248
3.129883	1.814333
3.130371	1.814108
3.130859	1.814410
3.131348	1.814248
3.131836	1.814214
3.132324	1.814295
3.132812	1.814381
3.133301	1.814248
3.133789	1.814217
3.134277	1.814293
3.134766	1.814422
3.135254	1.814583
3.135742	1.814282
3.136230	1.814250
3.136719	1.814380
3.137207	1.814322
3.137695	1.814209
3.138184	1.814255
3.138672	1.814228
3.139160	1.814102
3.139648	1.814156
3.140137	1.814054
3.140625	1.813657
3.141113	1.813832
3.141602	1.813977
3.142090	1.813982
3.142578	1.814139
3.143066	1.813965
3.143555	1.814283
3.144043	1.814129
3.144531	1.814095
3.145020	1.813867
3.145508	1.813854
3.145996	1.813938
3.146484	1.813921
3.146973	1.813981
3.147461	1.813907
3.147949	1.814421
3.148437	1.814117
3.148926	1.813735
3.149414	1.813994
3.149902	1.814049
3.150391	1.814011
3.150879	1.813967
3.151367	1.813854
3.151855	1.813801
3.152344	1.814126
3.152832	1.813972
3.153320	1.813992
3.153809	1.813965
3.154297	1.814137
3.154785	1.814078
3.155273	1.814082
3.155762	1.814017
3.156250	1.814074
3.156738	1.814078
3.157227	1.814212
3.157715	1.814136
3.158203	1.814463
3.158691	1.813962
3.159180	1.814143
3.159668	1.814200
3.160156	1.814057
3.160645	1.814008
3.161133	1.813935
3.161621	1.814154
3.162109	1.814104
3.162598	1.814015
3.163086	1.813988
3.163574	1.813976
3.164062	1.814022
3.164551	1.813898
3.165039	1.814054
3.165527	1.813857
3.166016	1.813977
3.166504	1.814102
3.166992	1.813678
3.167480	1.814048
3.167969	1.814092
3.168457	1.814004
3.168945	1.814029
3.169434	1.814167
3.169922	1.814392
3.170410	1.814181
3.170898	1.813966
3.171387	1.814098
3.171875	1.813823
3.172363	1.813924
3.172852	1.813772
3.173340	1.814076
3.173828	1.813951
3.174316	1.814082
3.174805	1.813979
3.175293	1.814120
3.175781	1.813903
3.176270	1.813931
3.176758	1.814120
3.177246	1.814025
3.177734	1.814084
3.178223	1.814302
3.178711	1.814057
3.179199	1.814212
3.179687	1.814302
3.180176	1.814026
3.180664	1.814392
3.181152	1.814131
3.181641	1.814417
3.182129	1.814461
3.182617	1.814064
3.183105	1.814255
3.183594	1.814056
3.184082	1.814043
3.184570	1.814233
3.185059	1.814253
3.185547	1.814230
3.186035	1.814035
3.186523	1.814285
3.187012	1.814104
3.187500	1.814093
3.187988	1.813982
3.188477	1.813760
3.188965	1.813949
3.189453	1.814022
3.189941	1.813955
3.190430	1.813999
3.190918	1.814341
3.191406	1.814033
3.191895	1.814287
3.192383	1.814103
3.192871	1.814280
3.193359	1.814450
3.193848	1.814165
3.194336	1.814128
3.194824	1.814383
3.195312	1.813737
3.195801	1.814116
3.196289	1.814034
3.196777	1.814062
3.197266	1.814041
3.197754	1.814043
3.198242	1.813960
3.198730	1.813990
3.199219	1.813916
3.199707	1.813636
3.200195	1.813969
3.200684	1.813905
3.201172	1.813879
3.201660	1.813913
3.202148	1.814085
3.202637	1.813739
3.203125	1.813859
3.203613	1.813719
3.204102	1.813830
3.204590	1.813680
3.205078	1.813890
3.205566	1.813739
3.206055	1.813819
3.206543	1.813949
3.207031	1.813829
3.207520	1.814052
3.208008	1.813861
3.208496	1.813924
3.208984	1.813799
3.209473	1.813846
3.209961	1.813905
3.210449	1.813851
3.210937	1.813880
3.211426	1.813924
3.211914	1.813944
3.212402	1.814109
3.212891	1.813965
3.213379	1.813979
3.213867	1.813966
3.214355	1.813988
3.214844	1.813978
3.215332	1.814018
3.215820	1.814051
3.216309	1.814095
3.216797	1.814010
3.217285	1.814095
3.217773	1.814345
3.218262	1.814231
3.218750	1.814121
3.219238	1.814044
3.219727	1.814251
3.220215	1.814008
3.220703	1.814227
3.221191	1.813884
3.221680	1.814266
3.222168	1.814255
3.222656	1.814092
3.223145	1.814044
3.223633	1.814186
3.224121	1.814346
3.224609	1.814311
3.225098	1.814350
3.225586	1.814224
3.226074	1.814497
3.226562	1.814288
3.227051	1.814558
3.227539	1.814710
3.228027	1.814738
3.228516	1.814644
3.229004	1.814776
3.229492	1.814966
3.229980	1.814474
3.230469	1.814763
3.230957	1.814579
3.231445	1.814615
3.231934	1.814766
3.232422	1.814727
3.232910	1.814663
3.233398	1.814801
3.233887	1.814949
3.234375	1.814810
3.234863	1.815112
3.235352	1.814884
3.235840	1.814966
3.236328	1.814823
3.236816	1.814855
3.237305	1.814971
3.237793	1.814853
3.238281	1.814644
3.238770	1.814789
3.239258	1.814788
3.239746	1.814580
3.240234	1.814582
3.240723	1.814719
3.241211	1.814471
3.241699	1.814659
3.242187	1.814815
3.242676	1.814507
3.243164	1.814636
3.243652	1.814590
3.244141	1.814543
3.244629	1.814482
3.245117	1.814400
3.245605	1.814414
3.246094	1.814369
3.246582	1.814184
3.247070	1.814142
3.247559	1.814496
3.248047	1.814089
3.248535	1.814181
3.249023	1.814312
3.249512	1.814293
3.250000	1.814039
3.250488	1.814406
3.250977	1.814033
3.251465	1.814133
3.251953	1.814046
3.252441	1.814061
3.252930	1.814162
3.253418	1.814266
3.253906	1.814056
3.254395	1.814208
3.254883	1.814238
3.255371	1.814186
3.255859	1.814093
3.256348	1.814010
3.256836	1.814335
3.257324	1.813971
3.257812	1.814313
3.258301	1.814052
3.258789	1.814161
3.259277	1.814020
3.259766	1.813932
3.260254	1.814085
3.260742	1.814017
3.261230	1.813819
3.261719	1.814334
3.262207	1.813982
3.262695	1.813975
3.263184	1.813876
3.263672	1.814021
3.264160	1.814100
3.264648	1.814037
3.265137	1.813888
3.265625	1.813990
3.266113	1.814263
3.266602	1.813757
3.267090	1.814164
3.267578	1.814132
3.268066	1.814121
3.268555	1.814026
3.269043	1.814311
3.269531	1.814017
3.270020	1.814238
3.270508	1.814163
3.270996	1.813851
3.271484	1.813984
3.271973	1.814206
3.272461	1.813794
3.272949	1.814214
3.273437	1.813976
3.273926	1.814364
3.274414	1.814156
3.274902	1.814028
3.275391	1.813929
3.275879	1.814314
3.276367	1.814363
3.276855	1.814223
3.277344	1.814405
3.277832	1.814287
3.278320	1.814323
3.278809	1.814320
3.279297	1.814545
3.279785	1.814334
3.280273	1.814715
3.280762	1.814206
3.281250	1.814416
3.281738	1.814388
3.282227	1.814222
3.282715	1.814275
3.283203	1.814357
3.283691	1.814258
3.284180	1.813902
3.284668	1.814213
3.285156	1.813954
3.285645	1.814221
3.286133	1.813997
3.286621	1.814175
3.287109	1.814013
3.287598	1.814172
3.288086	1.813971
3.288574	1.813766
3.289062	1.814103
3.289551	1.813843
3.290039	1.813802
3.290527	1.813566
3.291016	1.813770
3.291504	1.813712
3.291992	1.813889
3.292480	1.813633
3.292969	1.813584
3.293457	1.813982
3.293945	1.813405
3.294434	1.813556
3.294922	1.813577
3.295410	1.813302
3.295898	1.813542
3.296387	1.813340
3.296875	1.813517
3.297363	1.813534
3.297852	1.813552
3.298340	1.813368
3.298828	1.813574
3.299316	1.813520
3.299805	1.813515
3.300293	1.813415
3.300781	1.813678
3.301270	1.813279
3.301758	1.813314
3.302246	1.813171
3.302734	1.813059
3.303223	1.813268
3.303711	1.813210
3.304199	1.813135
3.304687	1.813432
3.305176	1.813270
3.305664	1.813239
3.306152	1.813176
3.306641	1.813413
3.307129	1.813426
3.307617	1.813547
3.308105	1.813632
3.308594	1.813406
3.309082	1.813581
3.309570	1.813280
3.310059	1.813408
3.310547	1.813649
3.311035	1.813329
3.311523	1.813418
3.312012	1.813417
3.312500	1.813489
3.312988	1.813398
3.313477	1.813213
3.313965	1.813268
3.314453	1.813216
3.314941	1.813531
3.315430	1.813392
3.315918	1.813511
3.316406	1.813506
3.316895	1.813316
3.317383	1.813602
3.317871	1.813585
3.318359	1.813550
3.318848	1.813366
3.319336	1.813671
3.319824	1.813426
3.320312	1.813720
3.320801	1.813777
3.321289	1.813700
3.321777	1.814010
3.322266	1.813696
3.322754	1.813877
3.323242	1.813846
3.323730	1.813796
3.324219	1.814018
3.324707	1.814114
3.325195	1.813977
3.325684	1.814150
3.326172	1.814029
3.326660	1.814100
3.327148	1.814157
3.327637	1.814345
3.328125	1.814039
3.328613	1.814140
3.329102	1.814381
3.329590	1.814195
3.330078	1.814330
3.330566	1.814193
3.331055	1.814267
3.331543	1.814278
3.332031	1.814388
3.332520	1.814374
3.333008	1.814491
3.333496	1.814489
3.333984	1.814388
3.334473	1.814435
3.334961	1.814335
3.335449	1.814492
3.335937	1.814111
3.336426	1.814228
3.336914	1.814003
3.337402	1.814281
3.337891	1.814320
3.338379	1.814160
3.338867	1.814143
3.339355	1.814345
3.339844	1.813938
3.340332	1.814219
3.340820	1.814462
3.341309	1.814059
3.341797	1.814573
3.342285	1.814090
3.342773	1.814117
3.343262	1.814316
3.343750	1.814018
3.344238	1.814133
3.344727	1.814139
3.345215	1.814121
3.345703	1.813869
3.346191	1.814168
3.346680	1.813793
3.347168	1.814309
3.347656	1.814186
3.348145	1.813851
3.348633	1.814023
3.349121	1.813945
3.349609	1.814131
3.350098	1.814117
3.350586	1.813866
3.351074	1.813778
3.351562	1.814083
3.352051	1.813850
3.352539	1.813676
3.353027	1.814029
3.353516	1.813998
3.354004	1.813863
3.354492	1.814145
3.354980	1.813900
3.355469	1.814009
3.355957	1.813910
3.356445	1.813782
3.356934	1.813743
3.357422	1.813916
3.357910	1.813774
3.358398	1.813580
3.358887	1.814075
3.359375	1.813793
3.359863	1.813894
3.360352	1.814029
3.360840	1.813588
3.361328	1.813898
3.361816	1.813704
3.362305	1.813564
3.362793	1.813664
3.363281	1.813729
3.363770	1.813534
3.364258	1.813655
3.364746	1.813822
3.365234	1.813609
3.365723	1.813733
3.366211	1.813858
3.366699	1.813744
3.367187	1.813940
3.367676	1.813823
3.368164	1.813904
3.368652	1.813826
3.369141	1.813776
3.369629	1.813494
3.370117	1.813644
3.370605	1.813718
3.371094	1.813422
3.371582	1.813776
3.372070	1.813692
3.372559	1.813769
3.373047	1.813738
3.373535	1.813676
3.374023	1.813618
3.374512	1.813770
3.375000	1.813674
3.375488	1.813610
3.375977	1.813823
3.376465	1.813521
3.376953	1.813687
3.377441	1.813703
3.377930	1.813857
3.378418	1.813729
3.378906	1.813844
3.379395	1.813823
3.379883	1.813844
3.380371	1.813974
3.380859	1.813492
3.381348	1.813679
3.381836	1.813780
3.382324	1.813732
3.382812	1.813821
3.383301	1.813848
3.383789	1.813830
3.384277	1.813887
3.384766	1.813841
3.385254	1.813533
3.385742	1.813836
3.386230	1.813774
3.386719	1.813688
3.387207	1.813647
3.387695	1.813819
3.388184	1.813566
3.388672	1.813660
3.389160	1.813433
3.389648	1.813768
3.390137	1.813315
3.390625	1.813542
3.391113	1.813835
3.391602	1.813592
3.392090	1.813841
3.392578	1.813685
3.393066	1.813713
3.393555	1.813733
3.394043	1.813782
3.394531	1.813786
3.395020	1.813649
3.395508	1.813563
3.395996	1.813552
3.396484	1.813338
3.396973	1.813512
3.397461	1.813331
3.397949	1.813419
3.398437	1.813185
3.398926	1.813436
3.399414	1.813231
3.399902	1.813467
3.400391	1.813438
3.400879	1.813320
3.401367	1.813519
3.401855	1.813284
3.402344	1.813308
3.402832	1.813093
3.403320	1.813442
3.403809	1.813265
3.404297	1.813285
3.404785	1.813466
3.405273	1.813232
3.405762	1.813162
3.406250	1.813245
3.406738	1.813239
3.407227	1.813220
3.407715	1.813154
3.408203	1.813406
3.408691	1.813509
3.409180	1.813427
3.409668	1.813415
3.410156	1.813468
3.410645	1.813196
3.411133	1.813381
3.411621	1.813516
3.412109	1.813458
3.412598	1.813293
3.413086	1.813761
3.413574	1.813248
3.414062	1.813412
3.414551	1.813615
3.415039	1.813482
3.415527	1.813445
3.416016	1.813613
3.416504	1.813456
3.416992	1.813802
3.417480	1.813658
3.417969	1.813729
3.418457	1.813953
3.418945	1.813982
3.419434	1.813931
3.419922	1.814001
3.420410	1.814038
3.420898	1.813890
3.421387	1.813752
3.421875	1.813801
3.422363	1.813636
3.422852	1.813755
3.423340	1.813801
3.423828	1.813891
3.424316	1.813997
3.424805	1.814123
3.425293	1.813933
3.425781	1.813953
3.426270	1.814143
3.426758	1.813918
3.427246	1.814184
3.427734	1.813983
3.428223	1.814164
3.428711	1.813896
3.429199	1.814115
3.429687	1.814111
3.430176	1.814316
3.430664	1.814212
3.431152	1.814134
3.431641	1.814107
3.432129	1.813840
3.432617	1.814169
3.433105	1.814010
3.433594	1.814039
3.434082	1.814195
3.434570	1.814003
3.435059	1.813892
3.435547	1.814182
3.436035	1.814192
3.436523	1.813814
3.437012	1.813997
3.437500	1.814085
3.437988	1.814008
3.438477	1.813885
3.438965	1.813718
3.439453	1.813647
3.439941	1.813785
3.440430	1.813963
3.440918	1.813791
3.441406	1.813929
3.441895	1.813612
3.442383	1.813683
3.442871	1.813366
3.443359	1.813319
3.443848	1.813436
3.444336	1.813363
3.444824	1.813334
3.445312	1.813055
3.445801	1.813484
3.446289	1.813229
3.446777	1.813241
3.447266	1.813275
3.447754	1.813365
3.448242	1.813114
3.448730	1.813290
3.449219	1.813002
3.449707	1.813163
3.450195	1.813085
3.450684	1.812890
3.451172	1.812825
3.451660	1.813184
3.452148	1.812963
3.452637	1.812850
3.453125	1.813272
3.453613	1.812915
3.454102	1.812957
3.454590	1.812800
3.455078	1.812675
3.455566	1.812763
3.456055	1.812841
3.456543	1.812670
3.457031	1.812911
3.457520	1.812860
3.458008	1.813034
3.458496	1.812699
3.458984	1.812975
3.459473	1.812651
3.459961	1.812841
3.460449	1.812623
3.460937	1.812741
3.461426	1.812645
3.461914	1.812666
3.462402	1.812722
3.462891	1.812759
3.463379	1.812901
3.463867	1.812559
3.464355	1.812708
3.464844	1.812565
3.465332	1.812661
3.465820	1.812810
3.466309	1.812827
3.466797	1.812704
3.467285	1.812957
3.467773	1.812813
3.468262	1.812913
3.468750	1.812844
3.469238	1.812873
3.469727	1.812956
3.470215	1.813188
3.470703	1.812979
3.471191	1.813065
3.471680	1.813022
3.472168	1.812800
3.472656	1.813012
3.473145	1.813219
3.473633	1.813102
3.474121	1.813182
3.474609	1.813251
3.475098	1.813549
3.475586	1.813264
3.476074	1.813131
3.476562	1.813344
3.477051	1.813281
3.477539	1.813511
3.478027	1.813375
3.478516	1.813816
3.479004	1.813851
3.479492	1.813334
3.479980	1.813678
3.480469	1.813276
3.480957	1.813279
3.481445	1.813396
3.481934	1.813584
3.482422	1.813239
3.482910	1.813646
3.483398	1.813621
3.483887	1.813390
3.484375	1.813630
3.484863	1.813503
3.485352	1.813511
3.485840	1.813634
3.486328	1.813411
3.486816	1.813707
3.487305	1.813682
3.487793	1.813766
3.488281	1.813547
3.488770	1.813653
3.489258	1.813771
3.489746	1.813637
3.490234	1.813685
3.490723	1.813824
3.491211	1.813354
3.491699	1.813527
3.492187	1.813574
3.492676	1.813588
3.493164	1.813535
3.493652	1.813466
3.494141	1.813337
3.494629	1.813394
3.495117	1.813165
3.495605	1.813455
3.496094	1.813269
3.496582	1.813209
3.497070	1.813505
3.497559	1.813395
3.498047	1.813403
3.498535	1.813248
3.499023	1.813380
3.499512	1.813268
3.500000	1.813287
3.500488	1.813396
3.500977	1.813302
3.501465	1.812962
3.501953	1.813036
3.502441	1.812884
3.502930	1.812994
3.503418	1.813057
3.503906	1.812937
3.504395	1.812892
3.504883	1.812828
3.505371	1.813054
3.505859	1.813042
3.506348	1.812695
3.506836	1.813353
3.507324	1.813122
3.507812	1.813445
3.508301	1.813263
3.508789	1.813166
3.509277	1.813074
3.509766	1.812994
3.510254	1.813279
3.510742	1.813048
3.511230	1.812982
3.511719	1.812989
3.512207	1.813030
3.512695	1.812924
3.513184	1.813179
3.513672	1.812883
3.514160	1.813096
3.514648	1.812996
3.515137	1.812911
3.515625	1.812930
3.516113	1.812797
3.516602	1.813050
3.517090	1.812947
3.517578	1.813076
3.518066	1.812986
3.518555	1.813322
3.519043	1.813264
3.519531	1.813157
3.520020	1.813131
3.520508	1.813307
3.520996	1.813047
3.521484	1.813340
3.521973	1.813283
3.522461	1.812994
3.522949	1.813301
3.523437	1.813349
3.523926	1.813392
3.524414	1.813326
3.524902	1.813367
3.525391	1.813576
3.525879	1.813285
3.526367	1.813364
3.526855	1.813287
3.527344	1.813323
3.527832	1.813361
3.528320	1.813563
3.528809	1.813514
3.529297	1.813381
3.529785	1.813663
3.530273	1.813619
3.530762	1.813434
3.531250	1.813552
3.531738	1.813539
3.532227	1.813447
3.532715	1.813861
3.533203	1.813495
3.533691	1.813464
3.534180	1.813449
3.534668	1.813738
3.535156	1.813592
3.535645	1.813776
3.536133	1.813555
3.536621	1.813591
3.537109	1.813758
3.537598	1.813746
3.538086	1.813576
3.538574	1.813815
3.539062	1.813561
3.539551	1.813677
3.540039	1.813896
3.540527	1.813589
3.541016	1.813641
3.541504	1.813487
3.541992	1.813512
3.542480	1.813473
3.542969	1.813358
3.543457	1.813554
3.543945	1.813400
3.544434	1.813578
3.544922	1.813210
3.545410	1.813171
3.545898	1.813522
3.546387	1.813195
3.546875	1.813329
3.547363	1.813273
3.547852	1.813304
3.548340	1.813046
3.548828	1.813445
3.549316	1.813210
3.549805	1.813420
3.550293	1.813451
3.550781	1.813195
3.551270	1.813254
3.551758	1.813133
3.552246	1.813378
3.552734	1.813011
3.553223	1.813381
3.553711	1.813372
3.554199	1.813226
3.554687	1.813356
3.555176	1.813203
3.555664	1.813281
3.556152	1.813392
3.556641	1.813266
3.557129	1.813489
3.557617	1.813396
3.558105	1.813345
3.558594	1.813433
3.559082	1.813505
3.559570	1.813238
3.560059	1.813330
3.560547	1.813350
3.561035	1.813211
3.561523	1.813220
3.562012	1.813309
3.562500	1.813348
3.562988	1.813245
3.563477	1.812996
3.563965	1.813387
3.564453	1.813358
3.564941	1.813141
3.565430	1.813450
3.565918	1.813285
3.566406	1.813339
3.566895	1.813306
3.567383	1.813458
3.567871	1.813623
3.568359	1.813442
3.568848	1.813751
3.569336	1.813744
3.569824	1.813572
3.570312	1.813735
3.570801	1.813482
3.571289	1.813722
3.571777	1.813566
3.572266	1.813548
3.572754	1.813904
3.573242	1.813782
3.573730	1.813734
3.574219	1.814031
3.574707	1.813852
3.575195	1.813826
3.575684	1.814119
3.576172	1.813984
3.576660	1.813884
3.577148	1.814043
3.577637	1.814069
3.578125	1.814134
3.578613	1.814014
3.579102	1.813863
3.579590	1.814200
3.580078	1.814004
3.580566	1.813958
3.581055	1.813789
3.581543	1.814094
3.582031	1.813818
3.582520	1.814363
3.583008	1.814133
3.583496	1.814284
3.583984	1.814336
3.584473	1.814344
3.584961	1.814290
3.585449	1.814550
3.585937	1.814597
3.586426	1.814235
3.586914	1.814294
3.587402	1.814441
3.587891	1.814201
3.588379	1.814236
3.588867	1.814177
3.589355	1.814161
3.589844	1.814070
3.590332	1.814201
3.590820	1.813802
3.591309	1.813902
3.591797	1.814028
3.592285	1.813950
3.592773	1.814109
3.593262	1.813981
3.593750	1.814344
3.594238	1.814107
3.594727	1.814087
3.595215	1.813877
3.595703	1.814079
3.596191	1.813981
3.596680	1.813765
3.597168	1.813737
3.597656	1.813890
3.598145	1.813780
3.598633	1.813765
3.599121	1.813957
3.599609	1.813762
3.600098	1.814211
3.600586	1.813769
3.601074	1.813851
3.601562	1.813978
3.602051	1.813794
3.602539	1.814008
3.603027	1.813846
3.603516	1.813982
3.604004	1.814101
3.604492	1.813702
3.604980	1.813957
3.605469	1.813829
3.605957	1.813996
3.606445	1.814025
3.606934	1.813920
3.607422	1.813976
3.607910	1.813990
3.608398	1.813899
3.608887	1.813944
3.609375	1.813736
3.609863	1.813985
3.610352	1.813951
3.610840	1.813860
3.611328	1.813918
3.611816	1.813932
3.612305	1.813887
3.612793	1.813945
3.613281	1.814051
3.613770	1.813815
3.614258	1.813752
3.614746	1.814214
3.615234	1.813995
3.615723	1.813998
3.616211	1.814115
3.616699	1.813971
3.617187	1.814203
3.617676	1.814085
3.618164	1.814242
3.618652	1.814431
3.619141	1.814179
3.619629	1.814122
3.620117	1.814117
3.620605	1.814219
3.621094	1.814253
3.621582	1.814370
3.622070	1.814075
3.622559	1.814295
3.623047	1.814139
3.623535	1.814452
3.624023	1.814301
3.624512	1.814345
3.625000	1.814792
3.625488	1.814599
3.625977	1.814544
3.626465	1.814774
3.626953	1.814621
3.627441	1.814910
3.627930	1.814618
3.628418	1.814902
3.628906	1.814936
3.629395	1.814736
3.629883	1.814538
3.630371	1.814602
3.630859	1.814561
3.631348	1.814617
3.631836	1.814477
3.632324	1.814696
3.632812	1.814511
3.633301	1.814503
3.633789	1.814566
3.634277	1.814361
3.634766	1.814497
3.635254	1.814471
3.635742	1.814471
3.636230	1.814259
3.636719	1.814484
3.637207	1.814375
3.637695	1.814660
3.638184	1.814291
3.638672	1.814245
3.639160	1.814101
3.639648	1.814334
3.640137	1.814389
3.640625	1.814151
3.641113	1.813974
3.641602	1.814136
3.642090	1.813939
3.642578	1.814021
3.643066	1.814024
3.643555	1.814135
3.644043	1.813907
3.644531	1.814018
3.645020	1.814060
3.645508	1.813920
3.645996	1.813849
3.646484	1.813586
3.646973	1.813990
3.647461	1.814009
3.647949	1.813733
3.648437	1.814060
3.648926	1.813935
3.649414	1.813904
3.649902	1.814070
3.650391	1.813891
3.650879	1.813898
3.651367	1.813873
3.651855	1.813897
3.652344	1.814003
3.652832	1.813992
3.653320	1.813971
3.653809	1.813976
3.654297	1.814124
3.654785	1.814161
3.655273	1.813980
3.655762	1.814037
3.656250	1.813924
3.656738	1.813823
3.657227	1.814068
3.657715	1.813727
3.658203	1.813843
3.658691	1.813851
3.659180	1.814040
3.659668	1.814052
3.660156	1.814142
3.660645	1.814101
3.661133	1.813928
3.661621	1.814072
3.662109	1.813938
3.662598	1.814124
3.663086	1.814089
3.663574	1.813881
3.664062	1.814011
3.664551	1.814075
3.665039	1.814287
3.665527	1.814081
3.666016	1.814272
3.666504	1.814029
3.666992	1.814094
3.667480	1.814118
3.667969	1.813882
3.668457	1.814381
3.668945	1.814163
3.669434	1.814251
3.669922	1.814356
3.670410	1.814306
3.670898	1.814318
3.671387	1.814082
3.671875	1.814282
3.672363	1.814533
3.672852	1.814352
3.673340	1.814357
3.673828	1.814564
3.674316	1.814566
3.674805	1.814355
3.675293	1.814667
3.675781	1.814545
3.676270	1.814502
3.676758	1.814405
3.677246	1.814701
3.677734	1.814727
3.678223	1.814543
3.678711	1.814408
3.679199	1.814618
3.679687	1.814378
3.680176	1.814508
3.680664	1.814444
3.681152	1.814489
3.681641	1.814255
3.682129	1.814698
3.682617	1.814497
3.683105	1.814873
3.683594	1.814690
3.684082	1.814413
3.684570	1.814442
3.685059	1.814575
3.685547	1.814524
3.686035	1.814196
3.686523	1.814194
3.687012	1.814154
3.687500	1.814312
3.687988	1.814359
3.688477	1.814192
3.688965	1.813939
3.689453	1.814353
3.689941	1.814258
3.690430	1.814079
3.690918	1.813919
3.691406	1.813992
3.691895	1.813870
3.692383	1.814156
3.692871	1.814106
3.693359	1.813822
3.693848	1.814088
3.694336	1.813932
3.694824	1.813994
3.695312	1.813842
3.695801	1.813786
3.696289	1.813773
3.696777	1.813713
3.697266	1.813554
3.697754	1.813869
3.698242	1.813617
3.698730	1.813676
3.699219	1.813675
3.699707	1.813733
3.700195	1.813664
3.700684	1.813509
3.701172	1.813536
3.701660	1.813413
3.702148	1.813431
3.702637	1.813328
3.703125	1.813562
3.703613	1.813695
3.704102	1.813840
3.704590	1.813636
3.705078	1.813614
3.705566	1.813532
3.706055	1.813716
3.706543	1.813659
3.707031	1.813438
3.707520	1.813599
3.708008	1.813628
3.708496	1.813797
3.708984	1.813644
3.709473	1.813901
3.709961	1.813927
3.710449	1.813622
3.710937	1.813819
3.711426	1.813827
3.711914	1.813639
3.712402	1.813343
3.712891	1.813671
3.713379	1.813777
3.713867	1.813727
3.714355	1.813660
3.714844	1.813707
3.715332	1.813958
3.715820	1.813689
3.716309	1.813811
3.716797	1.813772
3.717285	1.813658
3.717773	1.813996
3.718262	1.813843
3.718750	1.813585
3.719238	1.813840
3.719727	1.813890
3.720215	1.814107
3.720703	1.813700
3.721191	1.813938
3.721680	1.814026
3.722168	1.813977
3.722656	1.814024
3.723145	1.814153
3.723633	1.814028
3.724121	1.814160
3.724609	1.814063
3.725098	1.814272
3.725586	1.814384
3.726074	1.814195
3.726562	1.814148
3.727051	1.814231
3.727539	1.814295
3.728027	1.814142
3.728516	1.814191
3.729004	1.814146
3.729492	1.814158
3.729980	1.814150
3.730469	1.814109
3.730957	1.814190
3.731445	1.814193
3.731934	1.813921
3.732422	1.814400
3.732910	1.814296
3.733398	1.814193
3.733887	1.814323
3.734375	1.814147
3.734863	1.814079
3.735352	1.814156
3.735840	1.814145
3.736328	1.813999
3.736816	1.814222
3.737305	1.813957
3.737793	1.814256
3.738281	1.814095
3.738770	1.814236
3.739258	1.814164
3.739746	1.814211
3.740234	1.813896
3.740723	1.814028
3.741211	1.813996
3.741699	1.813754
3.742187	1.813876
3.742676	1.813716
3.743164	1.813652
3.743652	1.813695
3.744141	1.813708
3.744629	1.813744
3.745117	1.813745
3.745605	1.813671
3.746094	1.813829
3.746582	1.813602
3.747070	1.813947
3.747559	1.813850
3.748047	1.813860
3.748535	1.813652
3.749023	1.813757
3.749512	1.813608
3.750000	1.813663
3.750488	1.813636
3.750977	1.813753
3.751465	1.813731
3.751953	1.813675
3.752441	1.813901
3.752930	1.813988
3.753418	1.813542
3.753906	1.813786
3.754395	1.813688
3.754883	1.813602
3.755371	1.813981
3.755859	1.813675
3.756348	1.813688
3.756836	1.813640
3.757324	1.813524
3.757812	1.813706
3.758301	1.813818
3.758789	1.813403
3.759277	1.813587
3.759766	1.814071
3.760254	1.813760
3.760742	1.813679
3.761230	1.813810
3.761719	1.813746
3.762207	1.813853
3.762695	1.814323
3.763184	1.813849
3.763672	1.813728
3.764160	1.814172
3.764648	1.814237
3.765137	1.814269
3.765625	1.814148
3.766113	1.814187
3.766602	1.814125
3.767090	1.814128
3.767578	1.814251
3.768066	1.814464
3.768555	1.814369
3.769043	1.814556
3.769531	1.814416
3.770020	1.814550
3.770508	1.814262
3.770996	1.814499
3.771484	1.814446
3.771973	1.814361
3.772461	1.814518
3.772949	1.814448
3.773437	1.814554
3.773926	1.814437
3.774414	1.814599
3.774902	1.814420
3.775391	1.814526
3.775879	1.814476
3.776367	1.814333
3.776855	1.814487
3.777344	1.814322
3.777832	1.814585
3.778320	1.814557
3.778809	1.814450
3.779297	1.814729
3.779785	1.814575
3.780273	1.814592
3.780762	1.814658
3.781250	1.814555
3.781738	1.814292
3.782227	1.814527
3.782715	1.814760
3.783203	1.814482
3.783691	1.814709
3.784180	1.814733
3.784668	1.814771
3.785156	1.814666
3.785645	1.814673
3.786133	1.814702
3.786621	1.814643
3.787109	1.814486
3.787598	1.814494
3.788086	1.814617
3.788574	1.814503
3.789062	1.814669
3.789551	1.814529
3.790039	1.814603
3.790527	1.814389
3.791016	1.814151
3.791504	1.814430
3.791992	1.814112
3.792480	1.814381
3.792969	1.814240
3.793457	1.814295
3.793945	1.814526
3.794434	1.814165
3.794922	1.814255
3.795410	1.814322
3.795898	1.814384
3.796387	1.814291
3.796875	1.814377
3.797363	1.814219
3.797852	1.814380
3.798340	1.814239
3.798828	1.814236
3.799316	1.814298
3.799805	1.814073
3.800293	1.814452
3.800781	1.813985
3.801270	1.813765
3.801758	1.814125
3.802246	1.814016
3.802734	1.814141
3.803223	1.813928
3.803711	1.814355
3.804199	1.814247
3.804687	1.814141
3.805176	1.814184
3.805664	1.814355
3.806152	1.814185
3.806641	1.814152
3.807129	1.813967
3.807617	1.814024
3.808105	1.814113
3.808594	1.813966
3.809082	1.814005
3.809570	1.813866
3.810059	1.814079
3.810547	1.814041
3.811035	1.813987
3.811523	1.814176
3.812012	1.814070
3.812500	1.814350
3.812988	1.814392
3.813477	1.814427
3.813965	1.814346
3.814453	1.814399
3.814941	1.814530
3.815430	1.814442
3.815918	1.814332
3.816406	1.814312
3.816895	1.814275
3.817383	1.814478
3.817871	1.814588
3.818359	1.814449
3.818848	1.814271
3.819336	1.814702
3.819824	1.814548
3.820312	1.814637
3.820801	1.814580
3.821289	1.814485
3.821777	1.814740
3.822266	1.814770
3.822754	1.814844
3.823242	1.814702
3.823730	1.814830
3.824219	1.814640
3.824707	1.814879
3.825195	1.814994
3.825684	1.815012
3.826172	1.814842
3.826660	1.814616
3.827148	1.814588
3.827637	1.814728
3.828125	1.814530
3.828613	1.814612
3.829102	1.814709
3.829590	1.814569
3.830078	1.814505
3.830566	1.814835
3.831055	1.814084
3.831543	1.814300
3.832031	1.814367
3.832520	1.814409
3.833008	1.814320
3.833496	1.814364
3.833984	1.814245
3.834473	1.814234
3.834961	1.814411
3.835449	1.814242
3.835937	1.814229
3.836426	1.813965
3.836914	1.814396
3.837402	1.814028
3.837891	1.814189
3.838379	1.814164
3.838867	1.813917
3.839355	1.814127
3.839844	1.813862
3.840332	1.814156
3.840820	1.813929
3.841309	1.813815
3.841797	1.813743
3.842285	1.813615
3.842773	1.813677
3.843262	1.813620
3.843750	1.813674
3.844238	1.813732
3.844727	1.813746
3.845215	1.813608
3.845703	1.813685
3.846191	1.813724
3.846680	1.813565
3.847168	1.813617
3.847656	1.813499
3.848145	1.813622
3.848633	1.813104
3.849121	1.813383
3.849609	1.813507
3.850098	1.813287
3.850586	1.813502
3.851074	1.813234
3.851562	1.813343
3.852051	1.813126
3.852539	1.813422
3.853027	1.813203
3.853516	1.813326
3.854004	1.813437
3.854492	1.813390
3.854980	1.813492
3.855469	1.813380
3.855957	1.813494
3.856445	1.813459
3.856934	1.813191
3.857422	1.813445
3.857910	1.813419
3.858398	1.813260
3.858887	1.813343
3.859375	1.813761
3.859863	1.813326
3.860352	1.813550
3.860840	1.813575
3.861328	1.813515
3.861816	1.813521
3.862305	1.813636
3.862793	1.813360
3.863281	1.813542
3.863770	1.813592
3.864258	1.813580
3.864746	1.813878
3.865234	1.813910
3.865723	1.813688
3.866211	1.813790
3.866699	1.813761
3.867187	1.813747
3.867676	1.813749
3.868164	1.813961
3.868652	1.813375
3.869141	1.813863
3.869629	1.814114
3.870117	1.814047
3.870605	1.814166
3.871094	1.813921
3.871582	1.814175
3.872070	1.814333
3.872559	1.814408
3.873047	1.814049
3.873535	1.814277
3.874023	1.814017
3.874512	1.814008
3.875000	1.814290
3.875488	1.813984
3.875977	1.814317
3.876465	1.814157
3.876953	1.814121
3.877441	1.814042
3.877930	1.814247
3.878418	1.814178
3.878906	1.813973
3.879395	1.814325
3.879883	1.814231
3.880371	1.814153
3.880859	1.814157
3.881348	1.814040
3.881836	1.814243
3.882324	1.813965
3.882812	1.814101
3.883301	1.814419
3.883789	1.814331
3.884277	1.814237
3.884766	1.814464
3.885254	1.814217
3.885742	1.814233
3.886230	1.814442
3.886719	1.814419
3.887207	1.814167
3.887695	1.814410
3.888184	1.814298
3.888672	1.813852
3.889160	1.814428
3.889648	1.813886
3.890137	1.814140
3.890625	1.814187
3.891113	1.814070
3.891602	1.814120
3.892090	1.814021
3.892578	1.813981
3.893066	1.813932
3.893555	1.814049
3.894043	1.813832
3.894531	1.814042
3.895020	1.813854
3.895508	1.813789
3.895996	1.813938
3.896484	1.813817
3.896973	1.813812
3.897461	1.814059
3.897949	1.814013
3.898437	1.813990
3.898926	1.814202
3.899414	1.814209
3.899902	1.813702
3.900391	1.814200
3.900879	1.814081
3.901367	1.814160
3.901855	1.814244
3.902344	1.813924
3.902832	1.814084
3.903320	1.813963
3.903809	1.814299
3.904297	1.813999
3.904785	1.814051
3.905273	1.814071
3.905762	1.814194
3.906250	1.814164
3.906738	1.814197
3.907227	1.814098
3.907715	1.814424
3.908203	1.814307
3.908691	1.814345
3.909180	1.814372
3.909668	1.814471
3.910156	1.814514
3.910645	1.814563
3.911133	1.814477
3.911621	1.814489
3.912109	1.814414
3.912598	1.814137
3.913086	1.814558
3.913574	1.814242
3.914062	1.814429
3.914551	1.814609
3.915039	1.814358
3.915527	1.814359
3.916016	1.814552
3.916504	1.814685
3.916992	1.814231
3.917480	1.814523
3.917969	1.814571
3.918457	1.814477
3.918945	1.814543
3.919434	1.814450
3.919922	1.814388
3.920410	1.814808
3.920898	1.814535
3.921387	1.814710
3.921875	1.814782
3.922363	1.814464
3.922852	1.814496
3.923340	1.814607
3.923828	1.814555
3.924316	1.814505
3.924805	1.814686
3.925293	1.814602
3.925781	1.814552
3.926270	1.814420
3.926758	1.814453
3.927246	1.814572
3.927734	1.814429
3.928223	1.814343
3.928711	1.814305
3.929199	1.814276
3.929687	1.814567
3.930176	1.814458
3.930664	1.814276
3.931152	1.814114
3.931641	1.814486
3.932129	1.814221
3.932617	1.814624
3.933105	1.814506
3.933594	1.814085
3.934082	1.814386
3.934570	1.814428
3.935059	1.814336
3.935547	1.814180
3.936035	1.814225
3.936523	1.814156
3.937012	1.814262
3.937500	1.814140
3.937988	1.814217
3.938477	1.814198
3.938965	1.814245
3.939453	1.814147
3.939941	1.813901
3.940430	1.814098
3.940918	1.813776
3.941406	1.813819
3.941895	1.813912
3.942383	1.813891
3.942871	1.813833
3.943359	1.814078
3.943848	1.813777
3.944336	1.813907
3.944824	1.814022
3.945312	1.813824
3.945801	1.814087
3.946289	1.813880
3.946777	1.813757
3.947266	1.813785
3.947754	1.813948
3.948242	1.813801
3.948730	1.813847
3.949219	1.813909
3.949707	1.813852
3.950195	1.813696
3.950684	1.813863
3.951172	1.813752
3.951660	1.813808
3.952148	1.813672
3.952637	1.813778
3.953125	1.813899
3.953613	1.813780
3.954102	1.813541
3.954590	1.813632
3.955078	1.813370
3.955566	1.813418
3.956055	1.813470
3.956543	1.813204
3.957031	1.813339
3.957520	1.813547
3.958008	1.813605
3.958496	1.813611
3.958984	1.813633
3.959473	1.813503
3.959961	1.813650
3.960449	1.813564
3.960937	1.813260
3.961426	1.813434
3.961914	1.813591
3.962402	1.813377
3.962891	1.813507
3.963379	1.813616
3.963867	1.813411
3.964355	1.813615
3.964844	1.813375
3.965332	1.813422
3.965820	1.813406
3.966309	1.813518
3.966797	1.813380
3.967285	1.813636
3.967773	1.813775
3.968262	1.813868
3.968750	1.813790
3.969238	1.814040
3.969727	1.813804
3.970215	1.813940
3.970703	1.813959
3.971191	1.813697
3.971680	1.814009
3.972168	1.813816
3.972656	1.814084
3.973145	1.814131
3.973633	1.813564
3.974121	1.813954
3.974609	1.813840
3.975098	1.813714
3.975586	1.813813
3.976074	1.814024
3.976562	1.813772
3.977051	1.814092
3.977539	1.814079
3.978027	1.814104
3.978516	1.814137
3.979004	1.814344
3.979492	1.814191
3.979980	1.814248
3.980469	1.814214
3.980957	1.814310
3.981445	1.814348
3.981934	1.814309
3.982422	1.814062
3.982910	1.814353
3.983398	1.814294
3.983887	1.814406
3.984375	1.814212
3.984863	1.814314
3.985352	1.813854
3.985840	1.814010
3.986328	1.814219
3.986816	1.814077
3.987305	1.814231
3.987793	1.814095
3.988281	1.814349
3.988770	1.814156
3.989258	1.814234
3.989746	1.814043
3.990234	1.814276
3.990723	1.814123
3.991211	1.814065
3.991699	1.814019
3.992187	1.813926
3.992676	1.814010
3.993164	1.813988
3.993652	1.814080
3.994141	1.813869
3.994629	1.814106
3.995117	1.813923
3.995605	1.814077
3.996094	1.814064
3.996582	1.814142
3.997070	1.814077
3.997559	1.814151
3.998047	1.814247
3.998535	1.814311
3.999023	1.814156
3.999512	1.814046
4.000000	1.814038
4.000488	1.814119
4.000977	1.814035
4.001465	1.814048
4.001953	1.814245
4.002441	1.814063
4.002930	1.814049
4.003418	1.814089
4.003906	1.814332
4.004395	1.814243
4.004883	1.814116
4.005371	1.814020
4.005859	1.814167
4.006348	1.814075
4.006836	1.814156
4.007324	1.814217
4.007812	1.814002
4.008301	1.814334
4.008789	1.814206
4.009277	1.814322
4.009766	1.814043
4.010254	1.814317
4.010742	1.814157
4.011230	1.814444
4.011719	1.814330
4.012207	1.814106
4.012695	1.814402
4.013184	1.814267
4.013672	1.814370
4.014160	1.814472
4.014648	1.814409
4.015137	1.814383
4.015625	1.814756
4.016113	1.814566
4.016602	1.814604
4.017090	1.814845
4.017578	1.814876
4.018066	1.814776
4.018555	1.814786
4.019043	1.814849
4.019531	1.814820
4.020020	1.814885
4.020508	1.814934
4.020996	1.814700
4.021484	1.815267
4.021973	1.814428
4.022461	1.814859
4.022949	1.814899
4.023437	1.814679
4.023926	1.814872
4.024414	1.814781
4.024902	1.814874
4.025391	1.814594
4.025879	1.814987
4.026367	1.814582
4.026855	1.814864
4.027344	1.814509
4.027832	1.814585
4.028320	1.814685
4.028809	1.814665
4.029297	1.814525
4.029785	1.814640
4.030273	1.814438
4.030762	1.814579
4.031250	1.814374
4.031738	1.814535
4.032227	1.814297
4.032715	1.814569
4.033203	1.814353
4.033691	1.814300
4.034180	1.814410
4.034668	1.814352
4.035156	1.814322
4.035645	1.814250
4.036133	1.814291
4.036621	1.814043
4.037109	1.814328
4.037598	1.814233
4.038086	1.814106
4.038574	1.814143
4.039062	1.814209
4.039551	1.814065
4.040039	1.814059
4.040527	1.813944
4.041016	1.813993
4.041504	1.813613
4.041992	1.813979
4.042480	1.813865
4.042969	1.813725
4.043457	1.813746
4.043945	1.813540
4.044434	1.813600
4.044922	1.813613
4.045410	1.813600
4.045898	1.813262
4.046387	1.813406
4.046875	1.813357
4.047363	1.813470
4.047852	1.813499
4.048340	1.813505
4.048828	1.813592
4.049316	1.813458
4.049805	1.813453
4.050293	1.813638
4.050781	1.813455
4.051270	1.813317
4.051758	1.813445
4.052246	1.813562
4.052734	1.813612
4.053223	1.813527
4.053711	1.813564
4.054199	1.813661
4.054687	1.813603
4.055176	1.813724
4.055664	1.813857
4.056152	1.813652
4.056641	1.813742
4.057129	1.813822
4.057617	1.813750
4.058105	1.813956
4.058594	1.813471
4.059082	1.813830
4.059570	1.813500
4.060059	1.813665
4.060547	1.813792
4.061035	1.813852
4.061523	1.813772
4.062012	1.813810
4.062500	1.814033
4.062988	1.814011
4.063477	1.814215
4.063965	1.813957
4.064453	1.814190
4.064941	1.813684
4.065430	1.814193
4.065918	1.814045
4.066406	1.813982
4.066895	1.814213
4.067383	1.814270
4.067871	1.814095
4.068359	1.814100
4.068848	1.814192
4.069336	1.814223
4.069824	1.814382
4.070312	1.814117
4.070801	1.814040
4.071289	1.814216
4.071777	1.814163
4.072266	1.814232
4.072754	1.814217
4.073242	1.814123
4.073730	1.814250
4.074219	1.814378
4.074707	1.814206
4.075195	1.814361
4.075684	1.814207
4.076172	1.814353
4.076660	1.814133
4.077148	1.814120
4.077637	1.814204
4.078125	1.814020
4.078613	1.814217
4.079102	1.813993
4.079590	1.814263
4.080078	1.814330
4.080566	1.814040
4.081055	1.814161
4.081543	1.814049
4.082031	1.814079
4.082520	1.814162
4.083008	1.814071
4.083496	1.813918
4.083984	1.813972
4.084473	1.813964
4.084961	1.813655
4.085449	1.813850
4.085937	1.813807
4.086426	1.813599
4.086914	1.813907
4.087402	1.813805
4.087891	1.813708
4.088379	1.813700
4.088867	1.813961
4.089355	1.813563
4.089844	1.814081
4.090332	1.813678
4.090820	1.813486
4.091309	1.813675
4.091797	1.813817
4.092285	1.813705
4.092773	1.813809
4.093262	1.813487
4.093750	1.813524
4.094238	1.813797
4.094727	1.813599
4.095215	1.813735
4.095703	1.813628
4.096191	1.813736
4.096680	1.813636
4.097168	1.813689
4.097656	1.813638
4.098145	1.813726
4.098633	1.813731
4.099121	1.813884
4.099609	1.813666
4.100098	1.813782
4.100586	1.813986
4.101074	1.813601
4.101562	1.813971
4.102051	1.813733
4.102539	1.814006
4.103027	1.813866
4.103516	1.813805
4.104004	1.813722
4.104492	1.813926
4.104980	1.813744
4.105469	1.813844
4.105957	1.813750
4.106445	1.813592
4.106934	1.813848
4.107422	1.813809
4.107910	1.813797
4.108398	1.813795
4.108887	1.813814
4.109375	1.813953
4.109863	1.813843
4.110352	1.813979
4.110840	1.813891
4.111328	1.814001
4.111816	1.814122
4.112305	1.814104
4.112793	1.814266
4.113281	1.814052
4.113770	1.814140
4.114258	1.813957
4.114746	1.814177
4.115234	1.814104
4.115723	1.814209
4.116211	1.814122
4.116699	1.814226
4.117187	1.814364
4.117676	1.814495
4.118164	1.814612
4.118652	1.814089
4.119141	1.814374
4.119629	1.814408
4.120117	1.814398
4.120605	1.814034
4.121094	1.814178
4.121582	1.814370
4.122070	1.814344
4.122559	1.814207
4.123047	1.814257
4.123535	1.814258
4.124023	1.814234
4.124512	1.814518
4.125000	1.814320
4.125488	1.814352
4.125977	1.814295
4.126465	1.814558
4.126953	1.814560
4.127441	1.814596
4.127930	1.814532
4.128418	1.814563
4.128906	1.814500
4.129395	1.814494
4.129883	1.814331
4.130371	1.814483
4.130859	1.814249
4.131348	1.814398
4.131836	1.814455
4.132324	1.814119
4.132812	1.814671
4.133301	1.814283
4.133789	1.814461
4.134277	1.814435
4.134766	1.814483
4.135254	1.814331
4.135742	1.814419
4.136230	1.814383
4.136719	1.814482
4.137207	1.814471
4.137695	1.814392
4.138184	1.814624
4.138672	1.814396
4.139160	1.814427
4.139648	1.814286
4.140137	1.814429
4.140625	1.814117
4.141113	1.814043
4.141602	1.814205
4.142090	1.813940
4.142578	1.814009
4.143066	1.814027
4.143555	1.814187
4.144043	1.814161
4.144531	1.814175
4.145020	1.814117
4.145508	1.814143
4.145996	1.814148
4.146484	1.813887
4.146973	1.814126
4.147461	1.814125
4.147949	1.814093
4.148437	1.814015
4.148926	1.814104
4.149414	1.813787
4.149902	1.813907
4.150391	1.813860
4.150879	1.813718
4.151367	1.813673
4.151855	1.813818
4.152344	1.813719
4.152832	1.813723
4.153320	1.813541
4.153809	1.813799
4.154297	1.813789
4.154785	1.813617
4.155273	1.813669
4.155762	1.813580
4.156250	1.813622
4.156738	1.813603
4.157227	1.813746
4.157715	1.813641
4.158203	1.813750
4.158691	1.813826
4.159180	1.813779
4.159668	1.813752
4.160156	1.813696
4.160645	1.813662
4.161133	1.813516
4.161621	1.813516
4.162109	1.813741
4.162598	1.813729
4.163086	1.813432
4.163574	1.813628
4.164062	1.813552
4.164551	1.813743
4.165039	1.813729
4.165527	1.813918
4.166016	1.814054
4.166504	1.813821
4.166992	1.813836
4.167480	1.813846
4.167969	1.814073
4.168457	1.813850
4.168945	1.813869
4.169434	1.813776
4.169922	1.814007
4.170410	1.813557
4.170898	1.813943
4.171387	1.813875
4.171875	1.813794
4.172363	1.813973
4.172852	1.813788
4.173340	1.813751
4.173828	1.813945
4.174316	1.813848
4.174805	1.814058
4.175293	1.813980
4.175781	1.814257
4.176270	1.814024
4.176758	1.813671
4.177246	1.813995
4.177734	1.814024
4.178223	1.813999
4.178711	1.813837
4.179199	1.814075
4.179687	1.814196
4.180176	1.813685
4.180664	1.813858
4.181152	1.813709
4.181641	1.813783
4.182129	1.813857
4.182617	1.813808
4.183105	1.813699
4.183594	1.813735
4.184082	1.813754
4.184570	1.813838
4.185059	1.813886
4.185547	1.813772
4.186035	1.813757
4.186523	1.813815
4.187012	1.813935
4.187500	1.813693
4.187988	1.813693
4.188477	1.813664
4.188965	1.813664
4.189453	1.813637
4.189941	1.813796
4.190430	1.813646
4.190918	1.813665
4.191406	1.813874
4.191895	1.813670
4.192383	1.813751
4.192871	1.813598
4.193359	1.813810
4.193848	1.813699
4.194336	1.813635
4.194824	1.813489
4.195312	1.813924
4.195801	1.813453
4.196289	1.813893
4.196777	1.813871
4.197266	1.813837
4.197754	1.813700
4.198242	1.814034
4.198730	1.813893
4.199219	1.814006
4.199707	1.814139
4.200195	1.813943
4.200684	1.813837
4.201172	1.813907
4.201660	1.813912
4.202148	1.813914
4.202637	1.813858
4.203125	1.813937
4.203613	1.813961
4.204102	1.813988
4.204590	1.814066
4.205078	1.813775
4.205566	1.813957
4.206055	1.813817
4.206543	1.813933
4.207031	1.813774
4.207520	1.814157
4.208008	1.814112
4.208496	1.814374
4.208984	1.814235
4.209473	1.814455
4.209961	1.814446
4.210449	1.814342
4.210937	1.814370
4.211426	1.814419
4.211914	1.814485
4.212402	1.814586
4.212891	1.814455
4.213379	1.814329
4.213867	1.814569
4.214355	1.814580
4.214844	1.814426
4.215332	1.814558
4.215820	1.814698
4.216309	1.814461
4.216797	1.814705
4.217285	1.814633
4.217773	1.814568
4.218262	1.814734
4.218750	1.814340
4.219238	1.814569
4.219727	1.814586
4.220215	1.814417
4.220703	1.814766
4.221191	1.814445
4.221680	1.814599
4.222168	1.814539
4.222656	1.814461
4.223145	1.814176
4.223633	1.814539
4.224121	1.814261
4.224609	1.813955
4.225098	1.814586
4.225586	1.814312
4.226074	1.814221
4.226562	1.814244
4.227051	1.814139
4.227539	1.814375
4.228027	1.814453
4.228516	1.814224
4.229004	1.814397
4.229492	1.814059
4.229980	1.814112
4.230469	1.814039
4.230957	1.813905
4.231445	1.814084
4.231934	1.813849
4.232422	1.814325
4.232910	1.813954
4.233398	1.813688
4.233887	1.813898
4.234375	1.813586
4.234863	1.813522
4.235352	1.813509
4.235840	1.813687
4.236328	1.813638
4.236816	1.813523
4.237305	1.813610
4.237793	1.813432
4.238281	1.813372
4.238770	1.813194
4.239258	1.813373
4.239746	1.813281
4.240234	1.813239
4.240723	1.813538
4.241211	1.813088
4.241699	1.813121
4.242187	1.813265
4.242676	1.813323
4.243164	1.813271
4.243652	1.813135
4.244141	1.813229
4.244629	1.813278
4.245117	1.812795
4.245605	1.813112
4.246094	1.813083
4.246582	1.813175
4.247070	1.813163
4.247559	1.813218
4.248047	1.813533
4.248535	1.813265
4.249023	1.813221
4.249512	1.813265
4.250000	1.812994
4.250488	1.813082
4.250977	1.813157
4.251465	1.813040
4.251953	1.812922
4.252441	1.812797
4.252930	1.812943
4.253418	1.812938
4.253906	1.813084
4.254395	1.813030
4.254883	1.813109
4.255371	1.812962
4.255859	1.813115
4.256348	1.813236
4.256836	1.813342
4.257324	1.813162
4.257812	1.813350
4.258301	1.813337
4.258789	1.813297
4.259277	1.813349
4.259766	1.813123
4.260254	1.813286
4.260742	1.813323
4.261230	1.813260
4.261719	1.813115
4.262207	1.813396
4.262695	1.813147
4.263184	1.813328
4.263672	1.813461
4.264160	1.813248
4.264648	1.813367
4.265137	1.813478
4.265625	1.813380
4.266113	1.813476
4.266602	1.813741
4.267090	1.813599
4.267578	1.813605
4.268066	1.813910
4.268555	1.813567
4.269043	1.813332
4.269531	1.813471
4.270020	1.813318
4.270508	1.813446
4.270996	1.813306
4.271484	1.813337
4.271973	1.813411
4.272461	1.813516
4.272949	1.813161
4.273437	1.813420
4.273926	1.813472
4.274414	1.813589
4.274902	1.813505
4.275391	1.813535
4.275879	1.813267
4.276367	1.813602
4.276855	1.813505
4.277344	1.813440
4.277832	1.813464
4.278320	1.813481
4.278809	1.813368
4.279297	1.813450
4.279785	1.813486
4.280273	1.813309
4.280762	1.813451
4.281250	1.813303
4.281738	1.813352
4.282227	1.813428
4.282715	1.813496
4.283203	1.813387
4.283691	1.813746
4.284180	1.813521
4.284668	1.813561
4.285156	1.813590
4.285645	1.813382
4.286133	1.813351
4.286621	1.813311
4.287109	1.813458
4.287598	1.813594
4.288086	1.813622
4.288574	1.813427
4.289062	1.813528
4.289551	1.813419
4.290039	1.813271
4.290527	1.813301
4.291016	1.813361
4.291504	1.813173
4.291992	1.813283
4.292480	1.813474
4.292969	1.813462
4.293457	1.813145
4.293945	1.813433
4.294434	1.813314
4.294922	1.813307
4.295410	1.813678
4.295898	1.813442
4.296387	1.813423
4.296875	1.813413
4.297363	1.813520
4.297852	1.813446
4.298340	1.813270
4.298828	1.813461
4.299316	1.813547
4.299805	1.813583
4.300293	1.813614
4.300781	1.813671
4.301270	1.813434
4.301758	1.813450
4.302246	1.813602
4.302734	1.813430
4.303223	1.813278
4.303711	1.813351
4.304199	1.813364
4.304687	1.813342
4.305176	1.813779
4.305664	1.813544
4.306152	1.813669
4.306641	1.813783
4.307129	1.813683
4.307617	1.813887
4.308105	1.813739
4.308594	1.813816
4.309082	1.813774
4.309570	1.813976
4.310059	1.813905
4.310547	1.814007
4.311035	1.813908
4.311523	1.813884
4.312012	1.813853
4.312500	1.813962
4.312988	1.813957
4.313477	1.814289
4.313965	1.814284
4.314453	1.814021
4.314941	1.814317
4.315430	1.814292
4.315918	1.814374
4.316406	1.814297
4.316895	1.814400
4.317383	1.814266
4.317871	1.814574
4.318359	1.814240
4.318848	1.814296
4.319336	1.814495
4.319824	1.814197
4.320312	1.814735
4.320801	1.814062
4.321289	1.814175
4.321777	1.814313
4.322266	1.814388
4.322754	1.814274
4.323242	1.814372
4.323730	1.814361
4.324219	1.814405
4.324707	1.814442
4.325195	1.814327
4.325684	1.813873
4.326172	1.814309
4.326660	1.814372
4.327148	1.814254
4.327637	1.814259
4.328125	1.814343
4.328613	1.814236
4.329102	1.814416
4.329590	1.814466
4.330078	1.814062
4.330566	1.814414
4.331055	1.814122
4.331543	1.814254
4.332031	1.814302
4.332520	1.814207
4.333008	1.814122
4.333496	1.814267
4.333984	1.813913
4.334473	1.814150
4.334961	1.814038
4.335449	1.813976
4.335937	1.814343
4.336426	1.813932
4.336914	1.814043
4.337402	1.814072
4.337891	1.814182
4.338379	1.814194
4.338867	1.814089
4.339355	1.814154
4.339844	1.813900
4.340332	1.814096
4.340820	1.814076
4.341309	1.814124
4.341797	1.813907
4.342285	1.814035
4.342773	1.813999
4.343262	1.813960
4.343750	1.813811
4.344238	1.813766
4.344727	1.813990
4.345215	1.813840
4.345703	1.814092
4.346191	1.813808
4.346680	1.813914
4.347168	1.813834
4.347656	1.814018
4.348145	1.813795
4.348633	1.813770
4.349121	1.813769
4.349609	1.813818
4.350098	1.813663
4.350586	1.813847
4.351074	1.813398
4.351562	1.813642
4.352051	1.813772
4.352539	1.813403
4.353027	1.813535
4.353516	1.813747
4.354004	1.813729
4.354492	1.813931
4.354980	1.813907
4.355469	1.813881
4.355957	1.813778
4.356445	1.813869
4.356934	1.813890
4.357422	1.813906
4.357910	1.814023
4.358398	1.813999
4.358887	1.813995
4.359375	1.813966
4.359863	1.813997
4.360352	1.813907
4.360840	1.813952
4.361328	1.813663
4.361816	1.813883
4.362305	1.813864
4.362793	1.814139
4.363281	1.814149
4.363770	1.814057
4.364258	1.814406
4.364746	1.814327
4.365234	1.814356
4.365723	1.814141
4.366211	1.814162
4.366699	1.814330
4.367187	1.814366
4.367676	1.814273
4.368164	1.814133
4.368652	1.814507
4.369141	1.814503
4.369629	1.814368
4.370117	1.814236
4.370605	1.814496
4.371094	1.814302
4.371582	1.814463
4.372070	1.814191
4.372559	1.814250
4.373047	1.814021
4.373535	1.814226
4.374023	1.814075
4.374512	1.814255
4.375000	1.814288
4.375488	1.814091
4.375977	1.814276
4.376465	1.814067
4.376953	1.814221
4.377441	1.814229
4.377930	1.814665
4.378418	1.814084
4.378906	1.814121
4.379395	1.814228
4.379883	1.813832
4.380371	1.814115
4.380859	1.813949
4.381348	1.813868
4.381836	1.813841
4.382324	1.813892
4.382812	1.813817
4.383301	1.813607
4.383789	1.813666
4.384277	1.813480
4.384766	1.813761
4.385254	1.813489
4.385742	1.813472
4.386230	1.813511
4.386719	1.813573
4.387207	1.813578
4.387695	1.813547
4.388184	1.813574
4.388672	1.813660
4.389160	1.813603
4.389648	1.813549
4.390137	1.813596
4.390625	1.813420
4.391113	1.813386
4.391602	1.813383
4.392090	1.813476
4.392578	1.813191
4.393066	1.813559
4.393555	1.813239
4.394043	1.813544
4.394531	1.813418
4.395020	1.813603
4.395508	1.813386
4.395996	1.813519
4.396484	1.813478
4.396973	1.813266
4.397461	1.813578
4.397949	1.813551
4.398437	1.813425
4.398926	1.813581
4.399414	1.813458
4.399902	1.813324
4.400391	1.813257
4.400879	1.813336
4.401367	1.813113
4.401855	1.813364
4.402344	1.813233
4.402832	1.813217
4.403320	1.813218
4.403809	1.813268
4.404297	1.813170
4.404785	1.813189
4.405273	1.813355
4.405762	1.813480
4.406250	1.813491
4.406738	1.813478
4.407227	1.813679
4.407715	1.813812
4.408203	1.813594
4.408691	1.813676
4.409180	1.813889
4.409668	1.813428
4.410156	1.813558
4.410645	1.813807
4.411133	1.813713
4.411621	1.813826
4.412109	1.813747
4.412598	1.814073
4.413086	1.813846
4.413574	1.813703
4.414062	1.814062
4.414551	1.813752
4.415039	1.813965
4.415527	1.813903
4.416016	1.813929
4.416504	1.813992
4.416992	1.813865
4.417480	1.813964
4.417969	1.814177
4.418457	1.813923
4.418945	1.813923
4.419434	1.814005
4.419922	1.814000
4.420410	1.813862
4.420898	1.814021
4.421387	1.813688
4.421875	1.813770
4.422363	1.813796
4.422852	1.813652
4.423340	1.813909
4.423828	1.813540
4.424316	1.813966
4.424805	1.813999
4.425293	1.813627
4.425781	1.813627
4.426270	1.814002
4.426758	1.813735
4.427246	1.813769
4.427734	1.813880
4.428223	1.813648
4.428711	1.813871
4.429199	1.813592
4.429687	1.813840
4.430176	1.813647
4.430664	1.813832
4.431152	1.813608
4.431641	1.813245
4.432129	1.813481
4.432617	1.813244
4.433105	1.813386
4.433594	1.813250
4.434082	1.813201
4.434570	1.813640
4.435059	1.813340
4.435547	1.813279
4.436035	1.813408
4.436523	1.813101
4.437012	1.813228
4.437500	1.813421
4.437988	1.813544
4.438477	1.813218
4.438965	1.813694
4.439453	1.813475
4.439941	1.813599
4.440430	1.813577
4.440918	1.813401
4.441406	1.813321
4.441895	1.813457
4.442383	1.813475
4.442871	1.813098
4.443359	1.813593
4.443848	1.813420
4.444336	1.813437
4.444824	1.813558
4.445312	1.813393
4.445801	1.813512
4.446289	1.813554
4.446777	1.813404
4.447266	1.813491
4.447754	1.813533
4.448242	1.813605
4.448730	1.813440
4.449219	1.813576
4.449707	1.813462
4.450195	1.813492
4.450684	1.813478
4.451172	1.813382
4.451660	1.813585
4.452148	1.813376
4.452637	1.813569
4.453125	1.813558
4.453613	1.813767
4.454102	1.813410
4.454590	1.813610
4.455078	1.813533
4.455566	1.813649
4.456055	1.813741
4.456543	1.813473
4.457031	1.813585
4.457520	1.813698
4.458008	1.813808
4.458496	1.813435
4.458984	1.813938
4.459473	1.813495
4.459961	1.813954
4.460449	1.813813
4.460937	1.813734
4.461426	1.813487
4.461914	1.813878
4.462402	1.813896
4.462891	1.813989
4.463379	1.813887
4.463867	1.813898
4.464355	1.813988
4.464844	1.814033
4.465332	1.813985
4.465820	1.813881
4.466309	1.814021
4.466797	1.813917
4.467285	1.814031
4.467773	1.813945
4.468262	1.813938
4.468750	1.813904
4.469238	1.813946
4.469727	1.813833
4.470215	1.813713
4.470703	1.813818
4.471191	1.813583
4.471680	1.814047
4.472168	1.813868
4.472656	1.813961
4.473145	1.814154
4.473633	1.813981
4.474121	1.813996
4.474609	1.814011
4.475098	1.813981
4.475586	1.813882
4.476074	1.813890
4.476562	1.813815
4.477051	1.813925
4.477539	1.813735
4.478027	1.813939
4.478516	1.813830
4.479004	1.813865
4.479492	1.814125
4.479980	1.813370
4.480469	1.813713
4.480957	1.813547
4.481445	1.813390
4.481934	1.813453
4.482422	1.813418
4.482910	1.813480
4.483398	1.813450
4.483887	1.813564
4.484375	1.813398
4.484863	1.813501
4.485352	1.813380
4.485840	1.813263
4.486328	1.813217
4.486816	1.813236
4.487305	1.813386
4.487793	1.813295
4.488281	1.813483
4.488770	1.813448
4.489258	1.813456
4.489746	1.813329
4.490234	1.813329
4.490723	1.813442
4.491211	1.813370
4.491699	1.813316
4.492187	1.813644
4.492676	1.812971
4.493164	1.813272
4.493652	1.813221
4.494141	1.813202
4.494629	1.813476
4.495117	1.813379
4.495605	1.813205
4.496094	1.813503
4.496582	1.813292
4.497070	1.813420
4.497559	1.813297
4.498047	1.813535
4.498535	1.813541
4.499023	1.813501
4.499512	1.813471
4.500000	1.813333
4.500488	1.813268
4.500977	1.813212
4.501465	1.813127
4.501953	1.813260
4.502441	1.813217
4.502930	1.813323
4.503418	1.813249
4.503906	1.813049
4.504395	1.813367
4.504883	1.813583
4.505371	1.813306
4.505859	1.813292
4.506348	1.813627
4.506836	1.813520
4.507324	1.813412
4.507812	1.813647
4.508301	1.813372
4.508789	1.813657
4.509277	1.813389
4.509766	1.813423
4.510254	1.813638
4.510742	1.813578
4.511230	1.813383
4.511719	1.813583
4.512207	1.813511
4.512695	1.813585
4.513184	1.814043
4.513672	1.813502
4.514160	1.813751
4.514648	1.813596
4.515137	1.813624
4.515625	1.813806
4.516113	1.813760
4.516602	1.813847
4.517090	1.813722
4.517578	1.813826
4.518066	1.813738
4.518555	1.813852
4.519043	1.813781
4.519531	1.813524
4.520020	1.813733
4.520508	1.813815
4.520996	1.813596
4.521484	1.813580
4.521973	1.813707
4.522461	1.813387
4.522949	1.813758
4.523437	1.813811
4.523926	1.813620
4.524414	1.813640
4.524902	1.813798
4.525391	1.813635
4.525879	1.813537
4.526367	1.813823
4.526855	1.813570
4.527344	1.813695
4.527832	1.813836
4.528320	1.813653
4.528809	1.813599
4.529297	1.813539
4.529785	1.813423
4.530273	1.813461
4.530762	1.813124
4.531250	1.813449
4.531738	1.813470
4.532227	1.813339
4.532715	1.813105
4.533203	1.813428
4.533691	1.813001
4.534180	1.813024
4.534668	1.813372
4.535156	1.813000
4.535645	1.813106
4.536133	1.813041
4.536621	1.813109
4.537109	1.813168
4.537598	1.812990
4.538086	1.813175
4.538574	1.813140
4.539062	1.813135
4.539551	1.812932
4.540039	1.813235
4.540527	1.813196
4.541016	1.813099
4.541504	1.813091
4.541992	1.813029
4.542480	1.812930
4.542969	1.812843
4.543457	1.813109
4.543945	1.812919
4.544434	1.813025
4.544922	1.813076
4.545410	1.813038
4.545898	1.813191
4.546387	1.812876
4.546875	1.812924
4.547363	1.813004
4.547852	1.812938
4.548340	1.813145
4.548828	1.813185
4.549316	1.812946
4.549805	1.813019
4.550293	1.813205
4.550781	1.813063
4.551270	1.813254
4.551758	1.813025
4.552246	1.813650
4.552734	1.813249
4.553223	1.813165
4.553711	1.813157
4.554199	1.813156
4.554687	1.813249
4.555176	1.813218
4.555664	1.813390
4.556152	1.813323
4.556641	1.813426
4.557129	1.813544
4.557617	1.813466
4.558105	1.813372
4.558594	1.813623
4.559082	1.813367
4.559570	1.813692
4.560059	1.813924
4.560547	1.813836
4.561035	1.813598
4.561523	1.813623
4.562012	1.813818
4.562500	1.813735
4.562988	1.813864
4.563477	1.813887
4.563965	1.813870
4.564453	1.813928
4.564941	1.814012
4.565430	1.813988
4.565918	1.813910
4.566406	1.814178
4.566895	1.813839
4.567383	1.814048
4.567871	1.814041
4.568359	1.813917
4.568848	1.814016
4.569336	1.813860
4.569824	1.813951
4.570312	1.813763
4.570801	1.813912
4.571289	1.813792
4.571777	1.813893
4.572266	1.814010
4.572754	1.813782
4.573242	1.813761
4.573730	1.813840
4.574219	1.813904
4.574707	1.813731
4.575195	1.813772
4.575684	1.813828
4.576172	1.813901
4.576660	1.813776
4.577148	1.813822
4.577637	1.813858
4.578125	1.813974
4.578613	1.813915
4.579102	1.813904
4.579590	1.813784
4.580078	1.813769
4.580566	1.813931
4.581055	1.813589
4.581543	1.813764
4.582031	1.813329
4.582520	1.813406
4.583008	1.813650
4.583496	1.813557
4.583984	1.813677
4.584473	1.813608
4.584961	1.813744
4.585449	1.813528
4.585937	1.813853
4.586426	1.813500
4.586914	1.813605
4.587402	1.813832
4.587891	1.813710
4.588379	1.813608
4.588867	1.813678
4.589355	1.813472
4.589844	1.813381
4.590332	1.813825
4.590820	1.813381
4.591309	1.813264
4.591797	1.813547
4.592285	1.813231
4.592773	1.813558
4.593262	1.813300
4.593750	1.813538
4.594238	1.813580
4.594727	1.813570
4.595215	1.813467
4.595703	1.813486
4.596191	1.813410
4.596680	1.813546
4.597168	1.813574
4.597656	1.813543
4.598145	1.813433
4.598633	1.813705
4.599121	1.813436
4.599609	1.813300
4.600098	1.813512
4.600586	1.813177
4.601074	1.813451
4.601562	1.813350
4.602051	1.813504
4.602539	1.813451
4.603027	1.813525
4.603516	1.813531
4.604004	1.813639
4.604492	1.813664
4.604980	1.813688
4.605469	1.813679
4.605957	1.813635
4.606445	1.813664
4.606934	1.813287
4.607422	1.813686
4.607910	1.813619
4.608398	1.813592
4.608887	1.813770
4.609375	1.813634
4.609863	1.813725
4.610352	1.814038
4.610840	1.813755
4.611328	1.813556
4.611816	1.813660
4.612305	1.813393
4.612793	1.813624
4.613281	1.813536
4.613770	1.813372
4.614258	1.813392
4.614746	1.813483
4.615234	1.813285
4.615723	1.813589
4.616211	1.813513
4.616699	1.813280
4.617187	1.813584
4.617676	1.813274
4.618164	1.813514
4.618652	1.813288
4.619141	1.813386
4.619629	1.813281
4.620117	1.813670
4.620605	1.813730
4.621094	1.813293
4.621582	1.813338
4.622070	1.813641
4.622559	1.813342
4.623047	1.813648
4.623535	1.813485
4.624023	1.813478
4.624512	1.813552
4.625000	1.813243
4.625488	1.813399
4.625977	1.813696
4.626465	1.813527
4.626953	1.813453
4.627441	1.813397
4.627930	1.813767
4.628418	1.813289
4.628906	1.813308
4.629395	1.813272
4.629883	1.813175
4.630371	1.813423
4.630859	1.813060
4.631348	1.813375
4.631836	1.813356
4.632324	1.813181
4.632812	1.813359
4.633301	1.813284
4.633789	1.812969
4.634277	1.813113
4.634766	1.813055
4.635254	1.813034
4.635742	1.813024
4.636230	1.812813
4.636719	1.813035
4.637207	1.813066
4.637695	1.813071
4.638184	1.813019
4.638672	1.813005
4.639160	1.812888
4.639648	1.813124
4.640137	1.812968
4.640625	1.812916
4.641113	1.812770
4.641602	1.812827
4.642090	1.812891
4.642578	1.812547
4.643066	1.813213
4.643555	1.812973
4.644043	1.812994
4.644531	1.813049
4.645020	1.812868
4.645508	1.813202
4.645996	1.813066
4.646484	1.813305
4.646973	1.813024
4.647461	1.813295
4.647949	1.813068
4.648437	1.813391
4.648926	1.813436
4.649414	1.813336
4.649902	1.813580
4.650391	1.813441
4.650879	1.813300
4.651367	1.813148
4.651855	1.813356
4.652344	1.813308
4.652832	1.813400
4.653320	1.813451
4.653809	1.813461
4.654297	1.813634
4.654785	1.813549
4.655273	1.813403
4.655762	1.813763
4.656250	1.813491
4.656738	1.813694
4.657227	1.813798
4.657715	1.813647
4.658203	1.813953
4.658691	1.813993
4.659180	1.813971
4.659668	1.813838
4.660156	1.813996
4.660645	1.814136
4.661133	1.814023
4.661621	1.813896
4.662109	1.813959
4.662598	1.814170
4.663086	1.813865
4.663574	1.813856
4.664062	1.814059
4.664551	1.814064
4.665039	1.813884
4.665527	1.813953
4.666016	1.814131
4.666504	1.814062
4.666992	1.814111
4.667480	1.813962
4.667969	1.814336
4.668457	1.814226
4.668945	1.813833
4.669434	1.814058
4.669922	1.813936
4.670410	1.814126
4.670898	1.814048
4.671387	1.813918
4.671875	1.814065
4.672363	1.813755
4.672852	1.813845
4.673340	1.813603
4.673828	1.813808
4.674316	1.813684
4.674805	1.813766
4.675293	1.813932
4.675781	1.813800
4.676270	1.813738
4.676758	1.813665
4.677246	1.813790
4.677734	1.813771
4.678223	1.813600
4.678711	1.813805
4.679199	1.813640
4.679687	1.813867
4.680176	1.813895
4.680664	1.813616
4.681152	1.813674
4.681641	1.813812
4.682129	1.813653
4.682617	1.813330
4.683105	1.813644
4.683594	1.813557
4.684082	1.813612
4.684570	1.813317
4.685059	1.813563
4.685547	1.813375
4.686035	1.813514
4.686523	1.813492
4.687012	1.813236
4.687500	1.813346
4.687988	1.813557
4.688477	1.813425
4.688965	1.813189
4.689453	1.813322
4.689941	1.813235
4.690430	1.813423
4.690918	1.813152
4.691406	1.813394
4.691895	1.813443
4.692383	1.813616
4.692871	1.813666
4.693359	1.813539
4.693848	1.813451
4.694336	1.813594
4.694824	1.813603
4.695312	1.813542
4.695801	1.813509
4.696289	1.813295
4.696777	1.813340
4.697266	1.813462
4.697754	1.813295
4.698242	1.813506
4.698730	1.813472
4.699219	1.813527
4.699707	1.813291
4.700195	1.813452
4.700684	1.813032
4.701172	1.813337
4.701660	1.813339
4.702148	1.813158
4.702637	1.813632
4.703125	1.813692
4.703613	1.813468
4.704102	1.813616
4.704590	1.813749
4.705078	1.813534
4.705566	1.813912
4.706055	1.813624
4.706543	1.813470
4.707031	1.813836
4.707520	1.813814
4.708008	1.813811
4.708496	1.813788
4.708984	1.813822
4.709473	1.813840
4.709961	1.813987
4.710449	1.813794
4.710937	1.813691
4.711426	1.813664
4.711914	1.813777
4.712402	1.813757
4.712891	1.814035
4.713379	1.813768
4.713867	1.813682
4.714355	1.813827
4.714844	1.813619
4.715332	1.813738
4.715820	1.813740
4.716309	1.813748
4.716797	1.813674
4.717285	1.813766
4.717773	1.813669
4.718262	1.814046
4.718750	1.813802
4.719238	1.813928
4.719727	1.813734
4.720215	1.813685
4.720703	1.813830
4.721191	1.813533
4.721680	1.813550
4.722168	1.813444
4.722656	1.813719
4.723145	1.813549
4.723633	1.813829
4.724121	1.813693
4.724609	1.813954
4.725098	1.813808
4.725586	1.813899
4.726074	1.813752
4.726562	1.813705
4.727051	1.813833
4.727539	1.813774
4.728027	1.813746
4.728516	1.813658
4.729004	1.813619
4.729492	1.813508
4.729980	1.813754
4.730469	1.813464
4.730957	1.813444
4.731445	1.813628
4.731934	1.813594
4.732422	1.813298
4.732910	1.813766
4.733398	1.813500
4.733887	1.813880
4.734375	1.813830
4.734863	1.813593
4.735352	1.813579
4.735840	1.813459
4.736328	1.813529
4.736816	1.813551
4.737305	1.813653
4.737793	1.813722
4.738281	1.813726
4.738770	1.813695
4.739258	1.813622
4.739746	1.813760
4.740234	1.813688
4.740723	1.813476
4.741211	1.813767
4.741699	1.813799
4.742187	1.813689
4.742676	1.813662
4.743164	1.813732
4.743652	1.813696
4.744141	1.813843
4.744629	1.813779
4.745117	1.813675
4.745605	1.813693
4.746094	1.813497
4.746582	1.813705
4.747070	1.813627
4.747559	1.813684
4.748047	1.813509
4.748535	1.813602
4.749023	1.813531
4.749512	1.813451
4.750000	1.813629
4.750488	1.813443
4.750977	1.813549
4.751465	1.813595
4.751953	1.813696
4.752441	1.813655
4.752930	1.814039
4.753418	1.813903
4.753906	1.813916
4.754395	1.813863
4.754883	1.813581
4.755371	1.813923
4.755859	1.813822
4.756348	1.813729
4.756836	1.813761
4.757324	1.814007
4.757812	1.814017
4.758301	1.813810
4.758789	1.814071
4.759277	1.813998
4.759766	1.813843
4.760254	1.813852
4.760742	1.813920
4.761230	1.813821
4.761719	1.813760
4.762207	1.813977
4.762695	1.813849
4.763184	1.813714
4.763672	1.813700
4.764160	1.813650
4.764648	1.813751
4.765137	1.813841
4.765625	1.813765
4.766113	1.813934
4.766602	1.813531
4.767090	1.813940
4.767578	1.813864
4.768066	1.813790
4.768555	1.814125
4.769043	1.813933
4.769531	1.813942
4.770020	1.813927
4.770508	1.814123
4.770996	1.813751
4.771484	1.813776
4.771973	1.813835
4.772461	1.813841
4.772949	1.813703
4.773437	1.813815
4.773926	1.813658
4.774414	1.813816
4.774902	1.813707
4.775391	1.813691
4.775879	1.813769
4.776367	1.813595
4.776855	1.813442
4.777344	1.813675
4.777832	1.813478
4.778320	1.813617
4.778809	1.813470
4.779297	1.813512
4.779785	1.813568
4.780273	1.813577
4.780762	1.813381
4.781250	1.813258
4.781738	1.813317
4.782227	1.813171
4.782715	1.813213
4.783203	1.813270
4.783691	1.813135
4.784180	1.813174
4.784668	1.813219
4.785156	1.813134
4.785645	1.813293
4.786133	1.812950
4.786621	1.813184
4.787109	1.813088
4.787598	1.812995
4.788086	1.813234
4.788574	1.813087
4.789062	1.812948
4.789551	1.812722
4.790039	1.812867
4.790527	1.812988
4.791016	1.812866
4.791504	1.812889
4.791992	1.812992
4.792480	1.812960
4.792969	1.812906
4.793457	1.812919
4.793945	1.812940
4.794434	1.812861
4.794922	1.812919
4.795410	1.812884
4.795898	1.812792
4.796387	1.812757
4.796875	1.812842
4.797363	1.812722
4.797852	1.812790
4.798340	1.812828
4.798828	1.812574
4.799316	1.812889
4.799805	1.813029
4.800293	1.812980
4.800781	1.812729
4.801270	1.813044
4.801758	1.813157
4.802246	1.812842
4.802734	1.812935
4.803223	1.812782
4.803711	1.812842
4.804199	1.812813
4.804687	1.812934
4.805176	1.813062
4.805664	1.812827
4.806152	1.812772
4.806641	1.812839
4.807129	1.813032
4.807617	1.812919
4.808105	1.812822
4.808594	1.813317
4.809082	1.813228
4.809570	1.813121
4.810059	1.813212
4.810547	1.813012
4.811035	1.813366
4.811523	1.813156
4.812012	1.813084
4.812500	1.813028
4.812988	1.813412
4.813477	1.812961
4.813965	1.813309
4.814453	1.813238
4.814941	1.813312
4.815430	1.813325
4.815918	1.813407
4.816406	1.813247
4.816895	1.813121
4.817383	1.813468
4.817871	1.813175
4.818359	1.813272
4.818848	1.813234
4.819336	1.813390
4.819824	1.813197
4.820312	1.813404
4.820801	1.813113
4.821289	1.813213
4.821777	1.813349
4.822266	1.813104
4.822754	1.812980
4.823242	1.813174
4.823730	1.812997
4.824219	1.813173
4.824707	1.813077
4.825195	1.813269
4.825684	1.813146
4.826172	1.812854
4.826660	1.813119
4.827148	1.812885
4.827637	1.812925
4.828125	1.813045
4.828613	1.813005
4.829102	1.813027
4.829590	1.812855
4.830078	1.812948
4.830566	1.813035
4.831055	1.813013
4.831543	1.813199
4.832031	1.813029
4.832520	1.813079
4.833008	1.813088
4.833496	1.813162
4.833984	1.812883
4.834473	1.812974
4.834961	1.813087
4.835449	1.812841
4.835937	1.813160
4.836426	1.813132
4.836914	1.813021
4.837402	1.813229
4.837891	1.813246
4.838379	1.813323
4.838867	1.813190
4.839355	1.813248
4.839844	1.813641
4.840332	1.813413
4.840820	1.813550
4.841309	1.813470
4.841797	1.813476
4.842285	1.813733
4.842773	1.813445
4.843262	1.813575
4.843750	1.813559
4.844238	1.813567
4.844727	1.813231
4.845215	1.813804
4.845703	1.813534
4.846191	1.813962
4.846680	1.813847
4.847168	1.813896
4.847656	1.813801
4.848145	1.814123
4.848633	1.814002
4.849121	1.813877
4.849609	1.814005
4.850098	1.813894
4.850586	1.814001
4.851074	1.813808
4.851562	1.814150
4.852051	1.814104
4.852539	1.814253
4.853027	1.814190
4.853516	1.813990
4.854004	1.813888
4.854492	1.814097
4.854980	1.814157
4.855469	1.814111
4.855957	1.814183
4.856445	1.814029
4.856934	1.814197
4.857422	1.814155
4.857910	1.814361
4.858398	1.814563
4.858887	1.814524
4.859375	1.814446
4.859863	1.814535
4.860352	1.814467
4.860840	1.813961
4.861328	1.814263
4.861816	1.814199
4.862305	1.814215
4.862793	1.814206
4.863281	1.814459
4.863770	1.814305
4.864258	1.814204
4.864746	1.814354
4.865234	1.813941
4.865723	1.814115
4.866211	1.814193
4.866699	1.814229
4.867187	1.814291
4.867676	1.814130
4.868164	1.814559
4.868652	1.814265
4.869141	1.814004
4.869629	1.814286
4.870117	1.813841
4.870605	1.814130
4.871094	1.813731
4.871582	1.813900
4.872070	1.814106
4.872559	1.813783
4.873047	1.813953
4.873535	1.813765
4.874023	1.813858
4.874512	1.813737
4.875000	1.813602
4.875488	1.813397
4.875977	1.813510
4.876465	1.813386
4.876953	1.813522
4.877441	1.813651
4.877930	1.813245
4.878418	1.813714
4.878906	1.813111
4.879395	1.813229
4.879883	1.813305
4.880371	1.813256
4.880859	1.813190
4.881348	1.813254
4.881836	1.813062
4.882324	1.813077

