LabVIEW Measurement	
Writer_Version	2
Reader_Version	2
Separator	Tab
Decimal_Separator	.
Multi_Headings	Yes
X_Columns	One
Time_Pref	Absolute
Operator	W-Tunnel
Date	2024/05/15
Time	15:43:47.0002361812495430154
***End_of_Header***	
	
Channels	1	
Samples	10000	
Date	2024/05/15	
Time	15:46:18.1265320812499954142	
Y_Unit_Label	Volts	
X_Dimension	Time	
X0	0.0000000000000000E+0	
Delta_X	0.000488	
***End_of_Header***		
X_Value	Voltage	Comment
0.000000	1.556405
0.000488	1.556394
0.000977	1.556581
0.001465	1.556619
0.001953	1.556494
0.002441	1.556639
0.002930	1.556694
0.003418	1.556351
0.003906	1.556384
0.004395	1.556593
0.004883	1.556576
0.005371	1.556546
0.005859	1.556689
0.006348	1.556559
0.006836	1.556629
0.007324	1.556449
0.007812	1.556640
0.008301	1.556395
0.008789	1.556708
0.009277	1.556768
0.009766	1.556628
0.010254	1.556593
0.010742	1.556624
0.011230	1.556605
0.011719	1.556769
0.012207	1.556582
0.012695	1.556907
0.013184	1.556577
0.013672	1.556359
0.014160	1.556435
0.014648	1.556561
0.015137	1.556549
0.015625	1.556438
0.016113	1.556455
0.016602	1.556621
0.017090	1.556609
0.017578	1.556643
0.018066	1.556569
0.018555	1.556414
0.019043	1.556766
0.019531	1.556483
0.020020	1.556285
0.020508	1.556702
0.020996	1.556387
0.021484	1.556526
0.021973	1.556395
0.022461	1.556358
0.022949	1.556836
0.023437	1.556113
0.023926	1.556247
0.024414	1.556185
0.024902	1.556186
0.025391	1.556290
0.025879	1.556090
0.026367	1.556221
0.026855	1.556340
0.027344	1.556242
0.027832	1.556080
0.028320	1.555964
0.028809	1.555865
0.029297	1.555965
0.029785	1.555885
0.030273	1.555986
0.030762	1.556138
0.031250	1.556128
0.031738	1.556126
0.032227	1.555849
0.032715	1.556158
0.033203	1.556086
0.033691	1.556121
0.034180	1.555908
0.034668	1.556182
0.035156	1.555777
0.035645	1.555894
0.036133	1.555934
0.036621	1.555753
0.037109	1.555835
0.037598	1.555990
0.038086	1.555952
0.038574	1.555802
0.039062	1.556104
0.039551	1.555882
0.040039	1.556317
0.040527	1.556196
0.041016	1.556178
0.041504	1.556032
0.041992	1.556290
0.042480	1.556133
0.042969	1.556114
0.043457	1.556189
0.043945	1.556115
0.044434	1.555988
0.044922	1.556230
0.045410	1.556096
0.045898	1.555931
0.046387	1.556400
0.046875	1.556208
0.047363	1.556233
0.047852	1.556027
0.048340	1.556231
0.048828	1.556225
0.049316	1.556379
0.049805	1.556099
0.050293	1.556146
0.050781	1.556253
0.051270	1.556273
0.051758	1.556433
0.052246	1.556224
0.052734	1.556304
0.053223	1.556466
0.053711	1.556386
0.054199	1.556336
0.054687	1.556217
0.055176	1.556487
0.055664	1.556460
0.056152	1.556511
0.056641	1.556594
0.057129	1.556461
0.057617	1.556470
0.058105	1.556482
0.058594	1.556639
0.059082	1.556224
0.059570	1.556235
0.060059	1.556563
0.060547	1.556506
0.061035	1.556430
0.061523	1.556467
0.062012	1.556650
0.062500	1.556459
0.062988	1.556542
0.063477	1.556331
0.063965	1.556489
0.064453	1.556340
0.064941	1.556518
0.065430	1.556580
0.065918	1.556799
0.066406	1.556718
0.066895	1.556749
0.067383	1.556777
0.067871	1.556668
0.068359	1.556763
0.068848	1.556812
0.069336	1.557001
0.069824	1.556658
0.070312	1.556871
0.070801	1.556837
0.071289	1.556758
0.071777	1.556818
0.072266	1.556848
0.072754	1.556904
0.073242	1.556854
0.073730	1.556924
0.074219	1.556777
0.074707	1.556934
0.075195	1.556768
0.075684	1.556440
0.076172	1.556871
0.076660	1.556569
0.077148	1.556665
0.077637	1.556413
0.078125	1.556536
0.078613	1.556719
0.079102	1.556618
0.079590	1.556640
0.080078	1.556591
0.080566	1.556589
0.081055	1.556543
0.081543	1.556625
0.082031	1.556486
0.082520	1.556525
0.083008	1.556409
0.083496	1.556622
0.083984	1.556358
0.084473	1.556655
0.084961	1.556583
0.085449	1.556625
0.085937	1.556827
0.086426	1.556738
0.086914	1.556567
0.087402	1.556866
0.087891	1.556661
0.088379	1.556829
0.088867	1.556834
0.089355	1.556888
0.089844	1.556685
0.090332	1.556765
0.090820	1.556905
0.091309	1.556605
0.091797	1.556658
0.092285	1.556751
0.092773	1.556715
0.093262	1.556630
0.093750	1.556765
0.094238	1.556825
0.094727	1.556339
0.095215	1.556702
0.095703	1.556459
0.096191	1.556517
0.096680	1.556618
0.097168	1.556387
0.097656	1.556499
0.098145	1.556600
0.098633	1.556590
0.099121	1.556277
0.099609	1.556583
0.100098	1.556654
0.100586	1.556514
0.101074	1.556679
0.101562	1.556488
0.102051	1.556478
0.102539	1.556503
0.103027	1.556431
0.103516	1.556480
0.104004	1.556170
0.104492	1.556373
0.104980	1.556477
0.105469	1.556197
0.105957	1.556387
0.106445	1.556472
0.106934	1.556468
0.107422	1.556566
0.107910	1.556406
0.108398	1.556613
0.108887	1.556543
0.109375	1.556692
0.109863	1.556469
0.110352	1.556578
0.110840	1.556679
0.111328	1.556341
0.111816	1.556675
0.112305	1.556570
0.112793	1.556683
0.113281	1.556441
0.113770	1.556585
0.114258	1.556572
0.114746	1.556409
0.115234	1.556703
0.115723	1.556301
0.116211	1.556362
0.116699	1.556189
0.117187	1.556484
0.117676	1.556139
0.118164	1.556332
0.118652	1.556429
0.119141	1.556352
0.119629	1.556247
0.120117	1.556244
0.120605	1.556206
0.121094	1.556512
0.121582	1.556535
0.122070	1.556196
0.122559	1.556308
0.123047	1.556067
0.123535	1.556124
0.124023	1.556024
0.124512	1.556148
0.125000	1.556452
0.125488	1.556248
0.125977	1.556229
0.126465	1.556134
0.126953	1.556007
0.127441	1.556048
0.127930	1.556131
0.128418	1.556217
0.128906	1.556108
0.129395	1.556470
0.129883	1.556310
0.130371	1.556407
0.130859	1.556345
0.131348	1.556331
0.131836	1.556478
0.132324	1.556649
0.132812	1.556472
0.133301	1.556469
0.133789	1.556203
0.134277	1.556151
0.134766	1.556395
0.135254	1.556182
0.135742	1.556374
0.136230	1.556417
0.136719	1.556348
0.137207	1.556265
0.137695	1.556254
0.138184	1.556397
0.138672	1.556050
0.139160	1.556192
0.139648	1.556361
0.140137	1.556453
0.140625	1.556160
0.141113	1.556516
0.141602	1.556349
0.142090	1.556374
0.142578	1.556442
0.143066	1.556085
0.143555	1.556313
0.144043	1.556030
0.144531	1.556213
0.145020	1.556352
0.145508	1.556007
0.145996	1.556608
0.146484	1.556442
0.146973	1.556290
0.147461	1.556225
0.147949	1.556555
0.148437	1.556336
0.148926	1.556409
0.149414	1.556281
0.149902	1.556324
0.150391	1.556288
0.150879	1.556535
0.151367	1.556283
0.151855	1.556285
0.152344	1.556279
0.152832	1.556350
0.153320	1.556189
0.153809	1.556392
0.154297	1.556436
0.154785	1.556342
0.155273	1.556397
0.155762	1.556251
0.156250	1.556402
0.156738	1.556190
0.157227	1.556296
0.157715	1.556434
0.158203	1.556409
0.158691	1.556675
0.159180	1.556505
0.159668	1.556283
0.160156	1.556481
0.160645	1.556445
0.161133	1.556506
0.161621	1.556379
0.162109	1.556486
0.162598	1.556492
0.163086	1.556449
0.163574	1.556233
0.164062	1.556517
0.164551	1.556502
0.165039	1.556289
0.165527	1.556189
0.166016	1.556480
0.166504	1.556325
0.166992	1.556221
0.167480	1.556323
0.167969	1.556217
0.168457	1.556396
0.168945	1.556061
0.169434	1.556283
0.169922	1.556342
0.170410	1.556317
0.170898	1.556505
0.171387	1.556223
0.171875	1.556232
0.172363	1.556240
0.172852	1.556220
0.173340	1.556405
0.173828	1.556108
0.174316	1.556254
0.174805	1.556141
0.175293	1.556162
0.175781	1.556481
0.176270	1.556124
0.176758	1.556196
0.177246	1.556266
0.177734	1.556464
0.178223	1.556362
0.178711	1.556349
0.179199	1.556413
0.179687	1.556459
0.180176	1.556272
0.180664	1.556602
0.181152	1.556230
0.181641	1.556242
0.182129	1.556445
0.182617	1.556485
0.183105	1.556249
0.183594	1.556327
0.184082	1.555996
0.184570	1.556145
0.185059	1.555969
0.185547	1.556142
0.186035	1.556059
0.186523	1.556048
0.187012	1.556106
0.187500	1.556220
0.187988	1.556123
0.188477	1.556092
0.188965	1.556287
0.189453	1.556200
0.189941	1.556276
0.190430	1.556400
0.190918	1.556276
0.191406	1.556146
0.191895	1.556139
0.192383	1.556189
0.192871	1.556442
0.193359	1.555833
0.193848	1.556109
0.194336	1.555926
0.194824	1.556112
0.195312	1.556128
0.195801	1.556124
0.196289	1.556632
0.196777	1.556310
0.197266	1.556238
0.197754	1.556127
0.198242	1.555938
0.198730	1.556430
0.199219	1.556195
0.199707	1.556442
0.200195	1.556436
0.200684	1.556394
0.201172	1.556206
0.201660	1.556253
0.202148	1.556315
0.202637	1.556250
0.203125	1.556202
0.203613	1.556153
0.204102	1.556189
0.204590	1.556091
0.205078	1.556231
0.205566	1.556048
0.206055	1.556160
0.206543	1.556296
0.207031	1.555854
0.207520	1.556135
0.208008	1.555960
0.208496	1.556085
0.208984	1.556234
0.209473	1.556081
0.209961	1.556120
0.210449	1.556200
0.210937	1.556324
0.211426	1.556032
0.211914	1.555910
0.212402	1.556107
0.212891	1.556212
0.213379	1.556102
0.213867	1.555928
0.214355	1.555988
0.214844	1.556092
0.215332	1.556212
0.215820	1.556049
0.216309	1.555968
0.216797	1.556249
0.217285	1.555966
0.217773	1.556126
0.218262	1.556172
0.218750	1.556162
0.219238	1.556127
0.219727	1.556212
0.220215	1.556110
0.220703	1.556525
0.221191	1.556322
0.221680	1.556157
0.222168	1.556317
0.222656	1.556484
0.223145	1.556376
0.223633	1.556314
0.224121	1.556167
0.224609	1.556117
0.225098	1.556423
0.225586	1.556400
0.226074	1.556475
0.226562	1.556322
0.227051	1.556283
0.227539	1.556532
0.228027	1.555956
0.228516	1.556182
0.229004	1.556229
0.229492	1.556275
0.229980	1.556150
0.230469	1.556315
0.230957	1.556164
0.231445	1.556262
0.231934	1.556170
0.232422	1.556267
0.232910	1.556091
0.233398	1.556229
0.233887	1.556300
0.234375	1.556231
0.234863	1.556451
0.235352	1.556243
0.235840	1.556322
0.236328	1.556334
0.236816	1.556221
0.237305	1.556349
0.237793	1.556445
0.238281	1.556402
0.238770	1.556419
0.239258	1.556362
0.239746	1.556420
0.240234	1.556418
0.240723	1.556332
0.241211	1.556306
0.241699	1.556319
0.242187	1.556394
0.242676	1.556388
0.243164	1.556513
0.243652	1.556365
0.244141	1.556336
0.244629	1.556607
0.245117	1.556510
0.245605	1.556518
0.246094	1.556530
0.246582	1.556453
0.247070	1.556265
0.247559	1.556016
0.248047	1.556290
0.248535	1.556312
0.249023	1.556221
0.249512	1.556148
0.250000	1.556325
0.250488	1.556321
0.250977	1.556221
0.251465	1.556173
0.251953	1.556126
0.252441	1.556238
0.252930	1.556330
0.253418	1.556306
0.253906	1.556234
0.254395	1.555926
0.254883	1.556148
0.255371	1.556232
0.255859	1.556106
0.256348	1.556240
0.256836	1.556206
0.257324	1.556287
0.257812	1.556194
0.258301	1.556122
0.258789	1.556264
0.259277	1.555990
0.259766	1.556196
0.260254	1.556290
0.260742	1.555994
0.261230	1.556055
0.261719	1.555922
0.262207	1.556081
0.262695	1.556082
0.263184	1.556129
0.263672	1.555899
0.264160	1.556011
0.264648	1.555907
0.265137	1.556118
0.265625	1.556169
0.266113	1.556143
0.266602	1.556208
0.267090	1.556323
0.267578	1.556014
0.268066	1.556322
0.268555	1.556159
0.269043	1.555872
0.269531	1.556081
0.270020	1.556003
0.270508	1.555935
0.270996	1.555852
0.271484	1.556001
0.271973	1.555907
0.272461	1.555818
0.272949	1.555945
0.273437	1.555877
0.273926	1.555774
0.274414	1.555808
0.274902	1.555967
0.275391	1.555405
0.275879	1.555654
0.276367	1.555712
0.276855	1.555618
0.277344	1.555806
0.277832	1.555771
0.278320	1.555843
0.278809	1.555822
0.279297	1.555816
0.279785	1.555697
0.280273	1.555699
0.280762	1.555901
0.281250	1.555830
0.281738	1.555723
0.282227	1.555911
0.282715	1.555714
0.283203	1.555692
0.283691	1.555412
0.284180	1.555857
0.284668	1.555578
0.285156	1.555629
0.285645	1.555981
0.286133	1.555680
0.286621	1.556015
0.287109	1.555630
0.287598	1.555682
0.288086	1.555783
0.288574	1.555885
0.289062	1.555780
0.289551	1.555777
0.290039	1.555816
0.290527	1.555841
0.291016	1.556043
0.291504	1.555760
0.291992	1.556088
0.292480	1.555847
0.292969	1.555832
0.293457	1.555891
0.293945	1.555952
0.294434	1.555619
0.294922	1.555697
0.295410	1.555857
0.295898	1.555913
0.296387	1.555811
0.296875	1.555741
0.297363	1.555831
0.297852	1.555791
0.298340	1.555732
0.298828	1.555994
0.299316	1.555872
0.299805	1.555901
0.300293	1.555988
0.300781	1.556045
0.301270	1.555935
0.301758	1.555916
0.302246	1.555744
0.302734	1.555851
0.303223	1.555824
0.303711	1.556056
0.304199	1.555926
0.304687	1.555933
0.305176	1.555897
0.305664	1.555736
0.306152	1.555959
0.306641	1.555935
0.307129	1.555933
0.307617	1.555724
0.308105	1.555916
0.308594	1.555644
0.309082	1.556003
0.309570	1.555996
0.310059	1.556063
0.310547	1.556086
0.311035	1.555838
0.311523	1.555859
0.312012	1.556101
0.312500	1.555829
0.312988	1.555723
0.313477	1.556012
0.313965	1.555894
0.314453	1.555908
0.314941	1.555871
0.315430	1.555871
0.315918	1.555811
0.316406	1.555886
0.316895	1.556037
0.317383	1.555991
0.317871	1.555692
0.318359	1.555961
0.318848	1.556037
0.319336	1.555705
0.319824	1.555899
0.320312	1.555933
0.320801	1.556085
0.321289	1.556059
0.321777	1.556037
0.322266	1.556001
0.322754	1.555981
0.323242	1.556286
0.323730	1.555607
0.324219	1.555886
0.324707	1.555917
0.325195	1.555809
0.325684	1.555785
0.326172	1.555901
0.326660	1.556220
0.327148	1.555977
0.327637	1.555989
0.328125	1.555926
0.328613	1.555935
0.329102	1.555896
0.329590	1.556022
0.330078	1.555911
0.330566	1.556173
0.331055	1.556016
0.331543	1.556037
0.332031	1.556009
0.332520	1.556027
0.333008	1.556191
0.333496	1.556027
0.333984	1.556196
0.334473	1.556153
0.334961	1.556098
0.335449	1.556212
0.335937	1.556203
0.336426	1.556074
0.336914	1.556243
0.337402	1.556025
0.337891	1.556173
0.338379	1.556032
0.338867	1.556172
0.339355	1.555771
0.339844	1.556232
0.340332	1.556096
0.340820	1.556206
0.341309	1.556278
0.341797	1.556326
0.342285	1.556243
0.342773	1.556373
0.343262	1.556395
0.343750	1.556301
0.344238	1.556596
0.344727	1.556095
0.345215	1.556370
0.345703	1.556103
0.346191	1.556184
0.346680	1.556126
0.347168	1.556187
0.347656	1.556381
0.348145	1.556245
0.348633	1.556316
0.349121	1.556206
0.349609	1.556233
0.350098	1.556282
0.350586	1.556009
0.351074	1.556379
0.351562	1.556267
0.352051	1.556309
0.352539	1.556191
0.353027	1.556387
0.353516	1.556368
0.354004	1.556319
0.354492	1.556462
0.354980	1.556133
0.355469	1.556289
0.355957	1.556118
0.356445	1.556282
0.356934	1.556092
0.357422	1.556301
0.357910	1.556419
0.358398	1.556320
0.358887	1.556254
0.359375	1.556403
0.359863	1.556321
0.360352	1.556176
0.360840	1.556267
0.361328	1.556395
0.361816	1.556436
0.362305	1.556282
0.362793	1.556302
0.363281	1.556395
0.363770	1.556109
0.364258	1.556264
0.364746	1.556348
0.365234	1.556068
0.365723	1.556463
0.366211	1.556395
0.366699	1.556340
0.367187	1.556302
0.367676	1.556024
0.368164	1.556253
0.368652	1.556057
0.369141	1.556091
0.369629	1.556391
0.370117	1.556161
0.370605	1.556392
0.371094	1.556538
0.371582	1.556289
0.372070	1.556160
0.372559	1.556382
0.373047	1.556427
0.373535	1.556489
0.374023	1.556105
0.374512	1.556236
0.375000	1.556279
0.375488	1.556240
0.375977	1.556279
0.376465	1.556309
0.376953	1.556278
0.377441	1.556336
0.377930	1.556391
0.378418	1.556345
0.378906	1.556243
0.379395	1.556380
0.379883	1.556243
0.380371	1.556768
0.380859	1.556641
0.381348	1.556564
0.381836	1.556391
0.382324	1.556574
0.382812	1.556520
0.383301	1.556376
0.383789	1.556477
0.384277	1.556244
0.384766	1.556665
0.385254	1.556461
0.385742	1.556640
0.386230	1.556908
0.386719	1.556486
0.387207	1.556587
0.387695	1.556544
0.388184	1.556484
0.388672	1.556453
0.389160	1.556486
0.389648	1.556484
0.390137	1.556665
0.390625	1.556542
0.391113	1.556666
0.391602	1.556600
0.392090	1.556492
0.392578	1.556615
0.393066	1.556576
0.393555	1.556556
0.394043	1.556755
0.394531	1.556586
0.395020	1.556492
0.395508	1.556396
0.395996	1.556245
0.396484	1.556657
0.396973	1.556367
0.397461	1.556567
0.397949	1.556445
0.398437	1.556450
0.398926	1.556572
0.399414	1.556621
0.399902	1.556365
0.400391	1.556586
0.400879	1.556599
0.401367	1.556628
0.401855	1.556737
0.402344	1.556434
0.402832	1.556574
0.403320	1.556327
0.403809	1.556473
0.404297	1.556288
0.404785	1.556556
0.405273	1.556768
0.405762	1.556508
0.406250	1.556420
0.406738	1.556361
0.407227	1.556511
0.407715	1.556311
0.408203	1.556243
0.408691	1.556528
0.409180	1.556413
0.409668	1.556425
0.410156	1.556450
0.410645	1.556497
0.411133	1.556383
0.411621	1.556471
0.412109	1.556353
0.412598	1.556313
0.413086	1.556215
0.413574	1.556336
0.414062	1.556204
0.414551	1.556257
0.415039	1.555877
0.415527	1.556359
0.416016	1.555987
0.416504	1.556019
0.416992	1.556013
0.417480	1.556187
0.417969	1.555864
0.418457	1.556100
0.418945	1.556103
0.419434	1.556106
0.419922	1.556123
0.420410	1.555994
0.420898	1.556065
0.421387	1.555723
0.421875	1.555850
0.422363	1.555768
0.422852	1.556130
0.423340	1.555733
0.423828	1.555791
0.424316	1.556142
0.424805	1.555886
0.425293	1.556093
0.425781	1.555926
0.426270	1.555969
0.426758	1.556183
0.427246	1.555851
0.427734	1.556096
0.428223	1.556052
0.428711	1.556121
0.429199	1.556082
0.429687	1.556250
0.430176	1.556148
0.430664	1.556376
0.431152	1.556303
0.431641	1.556021
0.432129	1.556209
0.432617	1.555997
0.433105	1.556024
0.433594	1.556065
0.434082	1.556068
0.434570	1.556057
0.435059	1.555938
0.435547	1.555879
0.436035	1.556040
0.436523	1.556029
0.437012	1.556142
0.437500	1.556187
0.437988	1.556118
0.438477	1.555861
0.438965	1.556373
0.439453	1.555896
0.439941	1.555886
0.440430	1.555995
0.440918	1.555955
0.441406	1.555974
0.441895	1.555916
0.442383	1.555843
0.442871	1.555969
0.443359	1.556012
0.443848	1.555871
0.444336	1.555785
0.444824	1.555819
0.445312	1.555798
0.445801	1.555867
0.446289	1.555880
0.446777	1.555752
0.447266	1.556128
0.447754	1.555467
0.448242	1.555780
0.448730	1.555708
0.449219	1.555872
0.449707	1.555787
0.450195	1.555871
0.450684	1.555836
0.451172	1.555951
0.451660	1.555894
0.452148	1.555807
0.452637	1.555657
0.453125	1.555904
0.453613	1.555967
0.454102	1.555717
0.454590	1.555965
0.455078	1.555684
0.455566	1.555956
0.456055	1.555808
0.456543	1.555866
0.457031	1.555675
0.457520	1.555829
0.458008	1.556071
0.458496	1.555825
0.458984	1.555836
0.459473	1.555755
0.459961	1.555825
0.460449	1.555923
0.460937	1.555844
0.461426	1.555771
0.461914	1.555554
0.462402	1.555912
0.462891	1.555771
0.463379	1.556050
0.463867	1.555919
0.464355	1.555885
0.464844	1.556167
0.465332	1.556197
0.465820	1.555918
0.466309	1.555998
0.466797	1.556032
0.467285	1.556040
0.467773	1.556079
0.468262	1.556007
0.468750	1.556157
0.469238	1.556087
0.469727	1.556157
0.470215	1.556231
0.470703	1.556154
0.471191	1.556230
0.471680	1.556194
0.472168	1.556218
0.472656	1.556240
0.473145	1.556284
0.473633	1.555999
0.474121	1.556139
0.474609	1.556129
0.475098	1.556353
0.475586	1.556315
0.476074	1.556402
0.476562	1.556404
0.477051	1.556486
0.477539	1.556347
0.478027	1.556313
0.478516	1.556308
0.479004	1.556289
0.479492	1.556380
0.479980	1.556080
0.480469	1.556244
0.480957	1.556328
0.481445	1.556361
0.481934	1.556156
0.482422	1.556344
0.482910	1.556220
0.483398	1.556146
0.483887	1.556093
0.484375	1.556295
0.484863	1.556190
0.485352	1.556261
0.485840	1.556234
0.486328	1.556716
0.486816	1.556439
0.487305	1.556361
0.487793	1.556318
0.488281	1.556317
0.488770	1.556250
0.489258	1.556319
0.489746	1.556211
0.490234	1.556327
0.490723	1.556276
0.491211	1.556270
0.491699	1.556226
0.492187	1.556264
0.492676	1.556373
0.493164	1.556278
0.493652	1.556461
0.494141	1.556150
0.494629	1.556257
0.495117	1.556064
0.495605	1.556338
0.496094	1.556279
0.496582	1.556384
0.497070	1.556268
0.497559	1.556424
0.498047	1.556257
0.498535	1.556404
0.499023	1.556347
0.499512	1.556222
0.500000	1.556513
0.500488	1.556514
0.500977	1.556400
0.501465	1.556347
0.501953	1.556290
0.502441	1.556418
0.502930	1.556420
0.503418	1.556264
0.503906	1.556541
0.504395	1.555939
0.504883	1.556339
0.505371	1.556188
0.505859	1.556183
0.506348	1.556297
0.506836	1.556354
0.507324	1.556339
0.507812	1.556468
0.508301	1.556345
0.508789	1.556625
0.509277	1.556597
0.509766	1.556429
0.510254	1.556792
0.510742	1.556506
0.511230	1.556514
0.511719	1.556699
0.512207	1.556732
0.512695	1.556633
0.513184	1.556387
0.513672	1.556655
0.514160	1.556622
0.514648	1.556645
0.515137	1.556381
0.515625	1.556358
0.516113	1.556561
0.516602	1.556451
0.517090	1.556599
0.517578	1.556475
0.518066	1.556707
0.518555	1.556635
0.519043	1.556891
0.519531	1.556654
0.520020	1.556826
0.520508	1.556926
0.520996	1.556780
0.521484	1.556576
0.521973	1.556842
0.522461	1.556643
0.522949	1.556769
0.523437	1.556674
0.523926	1.556379
0.524414	1.556503
0.524902	1.556674
0.525391	1.556530
0.525879	1.556608
0.526367	1.556466
0.526855	1.556530
0.527344	1.556399
0.527832	1.556433
0.528320	1.556636
0.528809	1.556534
0.529297	1.556616
0.529785	1.556505
0.530273	1.556533
0.530762	1.556495
0.531250	1.556461
0.531738	1.556571
0.532227	1.556788
0.532715	1.556425
0.533203	1.556602
0.533691	1.556481
0.534180	1.556483
0.534668	1.556503
0.535156	1.556487
0.535645	1.556333
0.536133	1.556474
0.536621	1.556629
0.537109	1.556444
0.537598	1.556348
0.538086	1.556492
0.538574	1.556445
0.539062	1.556156
0.539551	1.556124
0.540039	1.556300
0.540527	1.556286
0.541016	1.556145
0.541504	1.556182
0.541992	1.556269
0.542480	1.556046
0.542969	1.556282
0.543457	1.556143
0.543945	1.556087
0.544434	1.555854
0.544922	1.556064
0.545410	1.555883
0.545898	1.556066
0.546387	1.556002
0.546875	1.555931
0.547363	1.555919
0.547852	1.555823
0.548340	1.556062
0.548828	1.555794
0.549316	1.555986
0.549805	1.555996
0.550293	1.556022
0.550781	1.555936
0.551270	1.555937
0.551758	1.555926
0.552246	1.555840
0.552734	1.556204
0.553223	1.555873
0.553711	1.555923
0.554199	1.555659
0.554687	1.556127
0.555176	1.555926
0.555664	1.555587
0.556152	1.555818
0.556641	1.555570
0.557129	1.555471
0.557617	1.555622
0.558105	1.555861
0.558594	1.555683
0.559082	1.555400
0.559570	1.555602
0.560059	1.555580
0.560547	1.555624
0.561035	1.555868
0.561523	1.555719
0.562012	1.555896
0.562500	1.555790
0.562988	1.555855
0.563477	1.555737
0.563965	1.555796
0.564453	1.555742
0.564941	1.555962
0.565430	1.555764
0.565918	1.555882
0.566406	1.555761
0.566895	1.555910
0.567383	1.555638
0.567871	1.555733
0.568359	1.555559
0.568848	1.555820
0.569336	1.555866
0.569824	1.555650
0.570312	1.555848
0.570801	1.555747
0.571289	1.555803
0.571777	1.555715
0.572266	1.555886
0.572754	1.555809
0.573242	1.555723
0.573730	1.555852
0.574219	1.555800
0.574707	1.555890
0.575195	1.555863
0.575684	1.555889
0.576172	1.555850
0.576660	1.555988
0.577148	1.555854
0.577637	1.555955
0.578125	1.555893
0.578613	1.555999
0.579102	1.555922
0.579590	1.555761
0.580078	1.556041
0.580566	1.556001
0.581055	1.556095
0.581543	1.556192
0.582031	1.555998
0.582520	1.556025
0.583008	1.555912
0.583496	1.556071
0.583984	1.555846
0.584473	1.556202
0.584961	1.555975
0.585449	1.556108
0.585937	1.556041
0.586426	1.556081
0.586914	1.556027
0.587402	1.555981
0.587891	1.556094
0.588379	1.556066
0.588867	1.555865
0.589355	1.556139
0.589844	1.556126
0.590332	1.555948
0.590820	1.556159
0.591309	1.556118
0.591797	1.556317
0.592285	1.556218
0.592773	1.556121
0.593262	1.556620
0.593750	1.556044
0.594238	1.555998
0.594727	1.556252
0.595215	1.556192
0.595703	1.556261
0.596191	1.556234
0.596680	1.556483
0.597168	1.556478
0.597656	1.556109
0.598145	1.556359
0.598633	1.556173
0.599121	1.556383
0.599609	1.556426
0.600098	1.556286
0.600586	1.556430
0.601074	1.556383
0.601562	1.556380
0.602051	1.556118
0.602539	1.556389
0.603027	1.556157
0.603516	1.556068
0.604004	1.556096
0.604492	1.556192
0.604980	1.556422
0.605469	1.556109
0.605957	1.556264
0.606445	1.556234
0.606934	1.556229
0.607422	1.556210
0.607910	1.556137
0.608398	1.556044
0.608887	1.556179
0.609375	1.556041
0.609863	1.556107
0.610352	1.556028
0.610840	1.556150
0.611328	1.556131
0.611816	1.556065
0.612305	1.556273
0.612793	1.556051
0.613281	1.556197
0.613770	1.555791
0.614258	1.555980
0.614746	1.556018
0.615234	1.555974
0.615723	1.556221
0.616211	1.556090
0.616699	1.555922
0.617187	1.555930
0.617676	1.556040
0.618164	1.556287
0.618652	1.555780
0.619141	1.556157
0.619629	1.556250
0.620117	1.556128
0.620605	1.556398
0.621094	1.556021
0.621582	1.556187
0.622070	1.556214
0.622559	1.556215
0.623047	1.556051
0.623535	1.556223
0.624023	1.555970
0.624512	1.556134
0.625000	1.556155
0.625488	1.556281
0.625977	1.556386
0.626465	1.556146
0.626953	1.556095
0.627441	1.556190
0.627930	1.556239
0.628418	1.556230
0.628906	1.556322
0.629395	1.556116
0.629883	1.556171
0.630371	1.556111
0.630859	1.556348
0.631348	1.556257
0.631836	1.556092
0.632324	1.556478
0.632812	1.556186
0.633301	1.556027
0.633789	1.556223
0.634277	1.556291
0.634766	1.556248
0.635254	1.556271
0.635742	1.556066
0.636230	1.556245
0.636719	1.556058
0.637207	1.556257
0.637695	1.556002
0.638184	1.556021
0.638672	1.556070
0.639160	1.556282
0.639648	1.556171
0.640137	1.556215
0.640625	1.556491
0.641113	1.556369
0.641602	1.556539
0.642090	1.556473
0.642578	1.556376
0.643066	1.556257
0.643555	1.556380
0.644043	1.556325
0.644531	1.556391
0.645020	1.556389
0.645508	1.556396
0.645996	1.556197
0.646484	1.556512
0.646973	1.556215
0.647461	1.556281
0.647949	1.556168
0.648437	1.556558
0.648926	1.556305
0.649414	1.556221
0.649902	1.556063
0.650391	1.556425
0.650879	1.556207
0.651367	1.556154
0.651855	1.556308
0.652344	1.556176
0.652832	1.556252
0.653320	1.556093
0.653809	1.556032
0.654297	1.556057
0.654785	1.556181
0.655273	1.556337
0.655762	1.556030
0.656250	1.556129
0.656738	1.555920
0.657227	1.556142
0.657715	1.555865
0.658203	1.555691
0.658691	1.556120
0.659180	1.556042
0.659668	1.555958
0.660156	1.556106
0.660645	1.556297
0.661133	1.556007
0.661621	1.555964
0.662109	1.555955
0.662598	1.556035
0.663086	1.555990
0.663574	1.556011
0.664062	1.555904
0.664551	1.555940
0.665039	1.555906
0.665527	1.555897
0.666016	1.556312
0.666504	1.556062
0.666992	1.556104
0.667480	1.556232
0.667969	1.555874
0.668457	1.556046
0.668945	1.555954
0.669434	1.556218
0.669922	1.555764
0.670410	1.556185
0.670898	1.556078
0.671387	1.556253
0.671875	1.556115
0.672363	1.555859
0.672852	1.555885
0.673340	1.556056
0.673828	1.555904
0.674316	1.555739
0.674805	1.555833
0.675293	1.555612
0.675781	1.555973
0.676270	1.555844
0.676758	1.555917
0.677246	1.555908
0.677734	1.555711
0.678223	1.555938
0.678711	1.555773
0.679199	1.555749
0.679687	1.555900
0.680176	1.555916
0.680664	1.555915
0.681152	1.556034
0.681641	1.555800
0.682129	1.555957
0.682617	1.555879
0.683105	1.555708
0.683594	1.555755
0.684082	1.555727
0.684570	1.555814
0.685059	1.555724
0.685547	1.555730
0.686035	1.555713
0.686523	1.555760
0.687012	1.555793
0.687500	1.555822
0.687988	1.555828
0.688477	1.555719
0.688965	1.555785
0.689453	1.555891
0.689941	1.555935
0.690430	1.555779
0.690918	1.555844
0.691406	1.555978
0.691895	1.555830
0.692383	1.556089
0.692871	1.555915
0.693359	1.555852
0.693848	1.555822
0.694336	1.555768
0.694824	1.555799
0.695312	1.555339
0.695801	1.555668
0.696289	1.555687
0.696777	1.555668
0.697266	1.555650
0.697754	1.555869
0.698242	1.555771
0.698730	1.555836
0.699219	1.555642
0.699707	1.555820
0.700195	1.555715
0.700684	1.555669
0.701172	1.555770
0.701660	1.555706
0.702148	1.555852
0.702637	1.555648
0.703125	1.555806
0.703613	1.555620
0.704102	1.555658
0.704590	1.555694
0.705078	1.555761
0.705566	1.555480
0.706055	1.556028
0.706543	1.555608
0.707031	1.555945
0.707520	1.555786
0.708008	1.555839
0.708496	1.555760
0.708984	1.555898
0.709473	1.555891
0.709961	1.555839
0.710449	1.555850
0.710937	1.555885
0.711426	1.555852
0.711914	1.555849
0.712402	1.556048
0.712891	1.556063
0.713379	1.555980
0.713867	1.555755
0.714355	1.555550
0.714844	1.555886
0.715332	1.555777
0.715820	1.555826
0.716309	1.555818
0.716797	1.555868
0.717285	1.556207
0.717773	1.555795
0.718262	1.555954
0.718750	1.555727
0.719238	1.555846
0.719727	1.555841
0.720215	1.555973
0.720703	1.556121
0.721191	1.555971
0.721680	1.556323
0.722168	1.556060
0.722656	1.556164
0.723145	1.555957
0.723633	1.555961
0.724121	1.556117
0.724609	1.555921
0.725098	1.556051
0.725586	1.556112
0.726074	1.556206
0.726562	1.556166
0.727051	1.556126
0.727539	1.555969
0.728027	1.555788
0.728516	1.556220
0.729004	1.555907
0.729492	1.556195
0.729980	1.556223
0.730469	1.556078
0.730957	1.556291
0.731445	1.556013
0.731934	1.556059
0.732422	1.555856
0.732910	1.555856
0.733398	1.556384
0.733887	1.556055
0.734375	1.556343
0.734863	1.556243
0.735352	1.556184
0.735840	1.556099
0.736328	1.556346
0.736816	1.556151
0.737305	1.556092
0.737793	1.556104
0.738281	1.556254
0.738770	1.556209
0.739258	1.556261
0.739746	1.556062
0.740234	1.556355
0.740723	1.556295
0.741211	1.556220
0.741699	1.556305
0.742187	1.556167
0.742676	1.556143
0.743164	1.556140
0.743652	1.556166
0.744141	1.556203
0.744629	1.555908
0.745117	1.556317
0.745605	1.556290
0.746094	1.556279
0.746582	1.556461
0.747070	1.556151
0.747559	1.556406
0.748047	1.556308
0.748535	1.556089
0.749023	1.556283
0.749512	1.556234
0.750000	1.556065
0.750488	1.556127
0.750977	1.556295
0.751465	1.556356
0.751953	1.555993
0.752441	1.556391
0.752930	1.556275
0.753418	1.556198
0.753906	1.556265
0.754395	1.556049
0.754883	1.556453
0.755371	1.556384
0.755859	1.556162
0.756348	1.556183
0.756836	1.556284
0.757324	1.556433
0.757812	1.556082
0.758301	1.556225
0.758789	1.556148
0.759277	1.556268
0.759766	1.556047
0.760254	1.556027
0.760742	1.556110
0.761230	1.555973
0.761719	1.556069
0.762207	1.556043
0.762695	1.555930
0.763184	1.556163
0.763672	1.555838
0.764160	1.556062
0.764648	1.556206
0.765137	1.556139
0.765625	1.556226
0.766113	1.556275
0.766602	1.556328
0.767090	1.556320
0.767578	1.556034
0.768066	1.556294
0.768555	1.556166
0.769043	1.555900
0.769531	1.556299
0.770020	1.556009
0.770508	1.556206
0.770996	1.556067
0.771484	1.556197
0.771973	1.556530
0.772461	1.556138
0.772949	1.555998
0.773437	1.556033
0.773926	1.556171
0.774414	1.556096
0.774902	1.555919
0.775391	1.555988
0.775879	1.555916
0.776367	1.555810
0.776855	1.556008
0.777344	1.555465
0.777832	1.555813
0.778320	1.555659
0.778809	1.555966
0.779297	1.555659
0.779785	1.555918
0.780273	1.555821
0.780762	1.556125
0.781250	1.555832
0.781738	1.555775
0.782227	1.555719
0.782715	1.555731
0.783203	1.555753
0.783691	1.555813
0.784180	1.555653
0.784668	1.555652
0.785156	1.555736
0.785645	1.555603
0.786133	1.555699
0.786621	1.555833
0.787109	1.555878
0.787598	1.555842
0.788086	1.555634
0.788574	1.555782
0.789062	1.555956
0.789551	1.555854
0.790039	1.555759
0.790527	1.555952
0.791016	1.555730
0.791504	1.555982
0.791992	1.555641
0.792480	1.555986
0.792969	1.555873
0.793457	1.555896
0.793945	1.556021
0.794434	1.555771
0.794922	1.555810
0.795410	1.555963
0.795898	1.556050
0.796387	1.556060
0.796875	1.555816
0.797363	1.556114
0.797852	1.556026
0.798340	1.555525
0.798828	1.555875
0.799316	1.555711
0.799805	1.555875
0.800293	1.555951
0.800781	1.555940
0.801270	1.555893
0.801758	1.555813
0.802246	1.555839
0.802734	1.555657
0.803223	1.555805
0.803711	1.555910
0.804199	1.555772
0.804687	1.555834
0.805176	1.555777
0.805664	1.555660
0.806152	1.555770
0.806641	1.555811
0.807129	1.555887
0.807617	1.555822
0.808105	1.555970
0.808594	1.555998
0.809082	1.555833
0.809570	1.555760
0.810059	1.555819
0.810547	1.555988
0.811035	1.556078
0.811523	1.556029
0.812012	1.556263
0.812500	1.556106
0.812988	1.556058
0.813477	1.555911
0.813965	1.556065
0.814453	1.556126
0.814941	1.555819
0.815430	1.556265
0.815918	1.556117
0.816406	1.556118
0.816895	1.556002
0.817383	1.556010
0.817871	1.555998
0.818359	1.556075
0.818848	1.556036
0.819336	1.556071
0.819824	1.555865
0.820312	1.555748
0.820801	1.555920
0.821289	1.555926
0.821777	1.555735
0.822266	1.555850
0.822754	1.556016
0.823242	1.555919
0.823730	1.555913
0.824219	1.555816
0.824707	1.555603
0.825195	1.555757
0.825684	1.555844
0.826172	1.555877
0.826660	1.555436
0.827148	1.555857
0.827637	1.555963
0.828125	1.555749
0.828613	1.555821
0.829102	1.555782
0.829590	1.555700
0.830078	1.555822
0.830566	1.555768
0.831055	1.555915
0.831543	1.555869
0.832031	1.555666
0.832520	1.555891
0.833008	1.555730
0.833496	1.555822
0.833984	1.555733
0.834473	1.555791
0.834961	1.556131
0.835449	1.555695
0.835937	1.555767
0.836426	1.555860
0.836914	1.555943
0.837402	1.555854
0.837891	1.555733
0.838379	1.555989
0.838867	1.555768
0.839355	1.555680
0.839844	1.555886
0.840332	1.555973
0.840820	1.555809
0.841309	1.555764
0.841797	1.555742
0.842285	1.555750
0.842773	1.555682
0.843262	1.555916
0.843750	1.555598
0.844238	1.555587
0.844727	1.555827
0.845215	1.555727
0.845703	1.555742
0.846191	1.555818
0.846680	1.555857
0.847168	1.555728
0.847656	1.555872
0.848145	1.555829
0.848633	1.555772
0.849121	1.555609
0.849609	1.555855
0.850098	1.555757
0.850586	1.555755
0.851074	1.555798
0.851562	1.555854
0.852051	1.555904
0.852539	1.555795
0.853027	1.555706
0.853516	1.556007
0.854004	1.555951
0.854492	1.555912
0.854980	1.556059
0.855469	1.555838
0.855957	1.555550
0.856445	1.555919
0.856934	1.556021
0.857422	1.555937
0.857910	1.555929
0.858398	1.556195
0.858887	1.555938
0.859375	1.556001
0.859863	1.555955
0.860352	1.555917
0.860840	1.556267
0.861328	1.555991
0.861816	1.555912
0.862305	1.556235
0.862793	1.555728
0.863281	1.555946
0.863770	1.555811
0.864258	1.555777
0.864746	1.555942
0.865234	1.555864
0.865723	1.555852
0.866211	1.555742
0.866699	1.555752
0.867187	1.555863
0.867676	1.555882
0.868164	1.555884
0.868652	1.555722
0.869141	1.555955
0.869629	1.556186
0.870117	1.555700
0.870605	1.555986
0.871094	1.555904
0.871582	1.555828
0.872070	1.555861
0.872559	1.555861
0.873047	1.555902
0.873535	1.555868
0.874023	1.555722
0.874512	1.555793
0.875000	1.555558
0.875488	1.555725
0.875977	1.555746
0.876465	1.555826
0.876953	1.555758
0.877441	1.555705
0.877930	1.555663
0.878418	1.555683
0.878906	1.555725
0.879395	1.555850
0.879883	1.555737
0.880371	1.555847
0.880859	1.555811
0.881348	1.555801
0.881836	1.555982
0.882324	1.555772
0.882812	1.555799
0.883301	1.555709
0.883789	1.555821
0.884277	1.555667
0.884766	1.555778
0.885254	1.555741
0.885742	1.555802
0.886230	1.555779
0.886719	1.555885
0.887207	1.555861
0.887695	1.555821
0.888184	1.555597
0.888672	1.555803
0.889160	1.555835
0.889648	1.555835
0.890137	1.555834
0.890625	1.555926
0.891113	1.555850
0.891602	1.555827
0.892090	1.556135
0.892578	1.555957
0.893066	1.556180
0.893555	1.556077
0.894043	1.555691
0.894531	1.555817
0.895020	1.556021
0.895508	1.556022
0.895996	1.555952
0.896484	1.555827
0.896973	1.555828
0.897461	1.555930
0.897949	1.555809
0.898437	1.555943
0.898926	1.555760
0.899414	1.556092
0.899902	1.556038
0.900391	1.556275
0.900879	1.556241
0.901367	1.556140
0.901855	1.556298
0.902344	1.556308
0.902832	1.556217
0.903320	1.556423
0.903809	1.556088
0.904297	1.556038
0.904785	1.556195
0.905273	1.555988
0.905762	1.556311
0.906250	1.556093
0.906738	1.556295
0.907227	1.556386
0.907715	1.556169
0.908203	1.556117
0.908691	1.556192
0.909180	1.556251
0.909668	1.556284
0.910156	1.556325
0.910645	1.556390
0.911133	1.556099
0.911621	1.556111
0.912109	1.556400
0.912598	1.556238
0.913086	1.556394
0.913574	1.556365
0.914062	1.556514
0.914551	1.556289
0.915039	1.556337
0.915527	1.556298
0.916016	1.556292
0.916504	1.556375
0.916992	1.556456
0.917480	1.556267
0.917969	1.556433
0.918457	1.556265
0.918945	1.556275
0.919434	1.556260
0.919922	1.556284
0.920410	1.556433
0.920898	1.556475
0.921387	1.556313
0.921875	1.556231
0.922363	1.556527
0.922852	1.556261
0.923340	1.556668
0.923828	1.556336
0.924316	1.556408
0.924805	1.556264
0.925293	1.556268
0.925781	1.556267
0.926270	1.556168
0.926758	1.556445
0.927246	1.556276
0.927734	1.556283
0.928223	1.556221
0.928711	1.556027
0.929199	1.556143
0.929687	1.556109
0.930176	1.556115
0.930664	1.556179
0.931152	1.556172
0.931641	1.556079
0.932129	1.556297
0.932617	1.556158
0.933105	1.556190
0.933594	1.556495
0.934082	1.555861
0.934570	1.556124
0.935059	1.556140
0.935547	1.556203
0.936035	1.556246
0.936523	1.556121
0.937012	1.556417
0.937500	1.556097
0.937988	1.556070
0.938477	1.556173
0.938965	1.556032
0.939453	1.556139
0.939941	1.556033
0.940430	1.556167
0.940918	1.556160
0.941406	1.555918
0.941895	1.556120
0.942383	1.555958
0.942871	1.556102
0.943359	1.555878
0.943848	1.555890
0.944336	1.556034
0.944824	1.555933
0.945312	1.556185
0.945801	1.556110
0.946289	1.556160
0.946777	1.555913
0.947266	1.555921
0.947754	1.555934
0.948242	1.555947
0.948730	1.555908
0.949219	1.555886
0.949707	1.556103
0.950195	1.555961
0.950684	1.556020
0.951172	1.556110
0.951660	1.555854
0.952148	1.555964
0.952637	1.556085
0.953125	1.555802
0.953613	1.555915
0.954102	1.555566
0.954590	1.555814
0.955078	1.555854
0.955566	1.555689
0.956055	1.556174
0.956543	1.555996
0.957031	1.556158
0.957520	1.555967
0.958008	1.555877
0.958496	1.556116
0.958984	1.555871
0.959473	1.555885
0.959961	1.555882
0.960449	1.555973
0.960937	1.555844
0.961426	1.556015
0.961914	1.555850
0.962402	1.555871
0.962891	1.555830
0.963379	1.555830
0.963867	1.555700
0.964355	1.555629
0.964844	1.555861
0.965332	1.555586
0.965820	1.555725
0.966309	1.555976
0.966797	1.555758
0.967285	1.556192
0.967773	1.555473
0.968262	1.555836
0.968750	1.555736
0.969238	1.555727
0.969727	1.555630
0.970215	1.555666
0.970703	1.555686
0.971191	1.555758
0.971680	1.555759
0.972168	1.555695
0.972656	1.556043
0.973145	1.555829
0.973633	1.555649
0.974121	1.555865
0.974609	1.555906
0.975098	1.555734
0.975586	1.555749
0.976074	1.555923
0.976562	1.555954
0.977051	1.555938
0.977539	1.555980
0.978027	1.556128
0.978516	1.555916
0.979004	1.555794
0.979492	1.556096
0.979980	1.555863
0.980469	1.556057
0.980957	1.555946
0.981445	1.556004
0.981934	1.555912
0.982422	1.555937
0.982910	1.555911
0.983398	1.555951
0.983887	1.555988
0.984375	1.555582
0.984863	1.555889
0.985352	1.555593
0.985840	1.555882
0.986328	1.555886
0.986816	1.555770
0.987305	1.556334
0.987793	1.556001
0.988281	1.556024
0.988770	1.555793
0.989258	1.556139
0.989746	1.556001
0.990234	1.555977
0.990723	1.555956
0.991211	1.556092
0.991699	1.555988
0.992187	1.556073
0.992676	1.556016
0.993164	1.555921
0.993652	1.556010
0.994141	1.555978
0.994629	1.555902
0.995117	1.556050
0.995605	1.556190
0.996094	1.556219
0.996582	1.556381
0.997070	1.556150
0.997559	1.556291
0.998047	1.556124
0.998535	1.556376
0.999023	1.556142
0.999512	1.556289
1.000000	1.556218
1.000488	1.556257
1.000977	1.556118
1.001465	1.556165
1.001953	1.556148
1.002441	1.556355
1.002930	1.556144
1.003418	1.556340
1.003906	1.556306
1.004395	1.556272
1.004883	1.556465
1.005371	1.556242
1.005859	1.556241
1.006348	1.556270
1.006836	1.556380
1.007324	1.556190
1.007812	1.556337
1.008301	1.556356
1.008789	1.556308
1.009277	1.556463
1.009766	1.556297
1.010254	1.556440
1.010742	1.556284
1.011230	1.556358
1.011719	1.556233
1.012207	1.556138
1.012695	1.556320
1.013184	1.556242
1.013672	1.556308
1.014160	1.556210
1.014648	1.556386
1.015137	1.556264
1.015625	1.556412
1.016113	1.556340
1.016602	1.556184
1.017090	1.556300
1.017578	1.556257
1.018066	1.556171
1.018555	1.556311
1.019043	1.556535
1.019531	1.556266
1.020020	1.556358
1.020508	1.556405
1.020996	1.556394
1.021484	1.556413
1.021973	1.556627
1.022461	1.556439
1.022949	1.556683
1.023437	1.556279
1.023926	1.556464
1.024414	1.556340
1.024902	1.556162
1.025391	1.556342
1.025879	1.556448
1.026367	1.556377
1.026855	1.556348
1.027344	1.556549
1.027832	1.556337
1.028320	1.556434
1.028809	1.556360
1.029297	1.556431
1.029785	1.556290
1.030273	1.556513
1.030762	1.556505
1.031250	1.556359
1.031738	1.556265
1.032227	1.556477
1.032715	1.556203
1.033203	1.556463
1.033691	1.556291
1.034180	1.556333
1.034668	1.556168
1.035156	1.556328
1.035645	1.556312
1.036133	1.556153
1.036621	1.556260
1.037109	1.556239
1.037598	1.556232
1.038086	1.556198
1.038574	1.555982
1.039062	1.556093
1.039551	1.556121
1.040039	1.556040
1.040527	1.556026
1.041016	1.556257
1.041504	1.556055
1.041992	1.556172
1.042480	1.556136
1.042969	1.556186
1.043457	1.555989
1.043945	1.555839
1.044434	1.556083
1.044922	1.556291
1.045410	1.555998
1.045898	1.556076
1.046387	1.555891
1.046875	1.556172
1.047363	1.555976
1.047852	1.556033
1.048340	1.555841
1.048828	1.555976
1.049316	1.556016
1.049805	1.555945
1.050293	1.555869
1.050781	1.555992
1.051270	1.555780
1.051758	1.556182
1.052246	1.555893
1.052734	1.555832
1.053223	1.555977
1.053711	1.555935
1.054199	1.555910
1.054687	1.555872
1.055176	1.555848
1.055664	1.555794
1.056152	1.555648
1.056641	1.555780
1.057129	1.555843
1.057617	1.556056
1.058105	1.555972
1.058594	1.556026
1.059082	1.555951
1.059570	1.555885
1.060059	1.555841
1.060547	1.556049
1.061035	1.555965
1.061523	1.555834
1.062012	1.556184
1.062500	1.556076
1.062988	1.555980
1.063477	1.556087
1.063965	1.555889
1.064453	1.556034
1.064941	1.556252
1.065430	1.555977
1.065918	1.556386
1.066406	1.555839
1.066895	1.555944
1.067383	1.556142
1.067871	1.555958
1.068359	1.556121
1.068848	1.555997
1.069336	1.556320
1.069824	1.556185
1.070312	1.555899
1.070801	1.556368
1.071289	1.555924
1.071777	1.556046
1.072266	1.556154
1.072754	1.556221
1.073242	1.556221
1.073730	1.556200
1.074219	1.556080
1.074707	1.556168
1.075195	1.555998
1.075684	1.556404
1.076172	1.556287
1.076660	1.556262
1.077148	1.556035
1.077637	1.555988
1.078125	1.556032
1.078613	1.556228
1.079102	1.556020
1.079590	1.555882
1.080078	1.556099
1.080566	1.556198
1.081055	1.556026
1.081543	1.556072
1.082031	1.555972
1.082520	1.556267
1.083008	1.556017
1.083496	1.556016
1.083984	1.556384
1.084473	1.556111
1.084961	1.556297
1.085449	1.556190
1.085937	1.556129
1.086426	1.556185
1.086914	1.556078
1.087402	1.556044
1.087891	1.556260
1.088379	1.555849
1.088867	1.555982
1.089355	1.555921
1.089844	1.555944
1.090332	1.556197
1.090820	1.556063
1.091309	1.556592
1.091797	1.556128
1.092285	1.555946
1.092773	1.556038
1.093262	1.555870
1.093750	1.555903
1.094238	1.555961
1.094727	1.555991
1.095215	1.555818
1.095703	1.555890
1.096191	1.555938
1.096680	1.555812
1.097168	1.555837
1.097656	1.556071
1.098145	1.555808
1.098633	1.555893
1.099121	1.555924
1.099609	1.555849
1.100098	1.556016
1.100586	1.556124
1.101074	1.555907
1.101562	1.556002
1.102051	1.555990
1.102539	1.556007
1.103027	1.556085
1.103516	1.555929
1.104004	1.556062
1.104492	1.555924
1.104980	1.556079
1.105469	1.555918
1.105957	1.555965
1.106445	1.555791
1.106934	1.555975
1.107422	1.555891
1.107910	1.555904
1.108398	1.555854
1.108887	1.556009
1.109375	1.555844
1.109863	1.555770
1.110352	1.556195
1.110840	1.556059
1.111328	1.556084
1.111816	1.555863
1.112305	1.556020
1.112793	1.556121
1.113281	1.556348
1.113770	1.555994
1.114258	1.555965
1.114746	1.555940
1.115234	1.556058
1.115723	1.556079
1.116211	1.555865
1.116699	1.555857
1.117187	1.555987
1.117676	1.555968
1.118164	1.555928
1.118652	1.555835
1.119141	1.556065
1.119629	1.555867
1.120117	1.555929
1.120605	1.556040
1.121094	1.555955
1.121582	1.555706
1.122070	1.556314
1.122559	1.556148
1.123047	1.556300
1.123535	1.556259
1.124023	1.556070
1.124512	1.556095
1.125000	1.556221
1.125488	1.556175
1.125977	1.556163
1.126465	1.556176
1.126953	1.556185
1.127441	1.556262
1.127930	1.556054
1.128418	1.556297
1.128906	1.556123
1.129395	1.556237
1.129883	1.556188
1.130371	1.556373
1.130859	1.556170
1.131348	1.556433
1.131836	1.556489
1.132324	1.556565
1.132812	1.556370
1.133301	1.556513
1.133789	1.556203
1.134277	1.556062
1.134766	1.556347
1.135254	1.556512
1.135742	1.556378
1.136230	1.556110
1.136719	1.556413
1.137207	1.556475
1.137695	1.555945
1.138184	1.556140
1.138672	1.555971
1.139160	1.556001
1.139648	1.556021
1.140137	1.556169
1.140625	1.556098
1.141113	1.556061
1.141602	1.556109
1.142090	1.556100
1.142578	1.556176
1.143066	1.555949
1.143555	1.556062
1.144043	1.555941
1.144531	1.556045
1.145020	1.555940
1.145508	1.555949
1.145996	1.556262
1.146484	1.556021
1.146973	1.555998
1.147461	1.556005
1.147949	1.556041
1.148437	1.556052
1.148926	1.556005
1.149414	1.555963
1.149902	1.555883
1.150391	1.556284
1.150879	1.556228
1.151367	1.556125
1.151855	1.556016
1.152344	1.556399
1.152832	1.556402
1.153320	1.555967
1.153809	1.556215
1.154297	1.555836
1.154785	1.556261
1.155273	1.555996
1.155762	1.556145
1.156250	1.556125
1.156738	1.556101
1.157227	1.556134
1.157715	1.556068
1.158203	1.555807
1.158691	1.555822
1.159180	1.555936
1.159668	1.555976
1.160156	1.555854
1.160645	1.556088
1.161133	1.556065
1.161621	1.555767
1.162109	1.555898
1.162598	1.555965
1.163086	1.555761
1.163574	1.555857
1.164062	1.555805
1.164551	1.555838
1.165039	1.555518
1.165527	1.555808
1.166016	1.555688
1.166504	1.555749
1.166992	1.555832
1.167480	1.555719
1.167969	1.555868
1.168457	1.555891
1.168945	1.555862
1.169434	1.555841
1.169922	1.555860
1.170410	1.555949
1.170898	1.556028
1.171387	1.555903
1.171875	1.555866
1.172363	1.555852
1.172852	1.555904
1.173340	1.555882
1.173828	1.555680
1.174316	1.556016
1.174805	1.555850
1.175293	1.555551
1.175781	1.555930
1.176270	1.555941
1.176758	1.555922
1.177246	1.555847
1.177734	1.556012
1.178223	1.556253
1.178711	1.555819
1.179199	1.556099
1.179687	1.555855
1.180176	1.555767
1.180664	1.556081
1.181152	1.556034
1.181641	1.556076
1.182129	1.556049
1.182617	1.556097
1.183105	1.555749
1.183594	1.555757
1.184082	1.555755
1.184570	1.555564
1.185059	1.555670
1.185547	1.555561
1.186035	1.556057
1.186523	1.555913
1.187012	1.555827
1.187500	1.555827
1.187988	1.555622
1.188477	1.555738
1.188965	1.555891
1.189453	1.555948
1.189941	1.555799
1.190430	1.556071
1.190918	1.556136
1.191406	1.556090
1.191895	1.555928
1.192383	1.556030
1.192871	1.556154
1.193359	1.556055
1.193848	1.555905
1.194336	1.556012
1.194824	1.556081
1.195312	1.556048
1.195801	1.556088
1.196289	1.556221
1.196777	1.556214
1.197266	1.556165
1.197754	1.556062
1.198242	1.556156
1.198730	1.555987
1.199219	1.556251
1.199707	1.556321
1.200195	1.556378
1.200684	1.556293
1.201172	1.556323
1.201660	1.556385
1.202148	1.556311
1.202637	1.556244
1.203125	1.556013
1.203613	1.556056
1.204102	1.556110
1.204590	1.556179
1.205078	1.556030
1.205566	1.556140
1.206055	1.555959
1.206543	1.556104
1.207031	1.556091
1.207520	1.556200
1.208008	1.556020
1.208496	1.556197
1.208984	1.556207
1.209473	1.556221
1.209961	1.556279
1.210449	1.556409
1.210937	1.556364
1.211426	1.556352
1.211914	1.556546
1.212402	1.556046
1.212891	1.556320
1.213379	1.556223
1.213867	1.556150
1.214355	1.556084
1.214844	1.556098
1.215332	1.556399
1.215820	1.556229
1.216309	1.556123
1.216797	1.556201
1.217285	1.556208
1.217773	1.556246
1.218262	1.556284
1.218750	1.556321
1.219238	1.556113
1.219727	1.556284
1.220215	1.556383
1.220703	1.556444
1.221191	1.556320
1.221680	1.556241
1.222168	1.556322
1.222656	1.556366
1.223145	1.556212
1.223633	1.556520
1.224121	1.555933
1.224609	1.556196
1.225098	1.556220
1.225586	1.556381
1.226074	1.556308
1.226562	1.556231
1.227051	1.556509
1.227539	1.556414
1.228027	1.556170
1.228516	1.556168
1.229004	1.556082
1.229492	1.556370
1.229980	1.556259
1.230469	1.556321
1.230957	1.556254
1.231445	1.556203
1.231934	1.556173
1.232422	1.556068
1.232910	1.556242
1.233398	1.556291
1.233887	1.556254
1.234375	1.556082
1.234863	1.556366
1.235352	1.555949
1.235840	1.556049
1.236328	1.556022
1.236816	1.556069
1.237305	1.556131
1.237793	1.556222
1.238281	1.556348
1.238770	1.556368
1.239258	1.556328
1.239746	1.556131
1.240234	1.556386
1.240723	1.556175
1.241211	1.556134
1.241699	1.556351
1.242187	1.556386
1.242676	1.556189
1.243164	1.556263
1.243652	1.556046
1.244141	1.556298
1.244629	1.556224
1.245117	1.556202
1.245605	1.556449
1.246094	1.555902
1.246582	1.556231
1.247070	1.555981
1.247559	1.556076
1.248047	1.556067
1.248535	1.556217
1.249023	1.556124
1.249512	1.556132
1.250000	1.555971
1.250488	1.556195
1.250977	1.556215
1.251465	1.555924
1.251953	1.556038
1.252441	1.556191
1.252930	1.556042
1.253418	1.556116
1.253906	1.556024
1.254395	1.556107
1.254883	1.556077
1.255371	1.555980
1.255859	1.556074
1.256348	1.556162
1.256836	1.555845
1.257324	1.556057
1.257812	1.555866
1.258301	1.555850
1.258789	1.555969
1.259277	1.555848
1.259766	1.556039
1.260254	1.555982
1.260742	1.556402
1.261230	1.555982
1.261719	1.555904
1.262207	1.556012
1.262695	1.555639
1.263184	1.555824
1.263672	1.555771
1.264160	1.555797
1.264648	1.555379
1.265137	1.556052
1.265625	1.555979
1.266113	1.555977
1.266602	1.555980
1.267090	1.555934
1.267578	1.555942
1.268066	1.555998
1.268555	1.556015
1.269043	1.555885
1.269531	1.556058
1.270020	1.556006
1.270508	1.556175
1.270996	1.556095
1.271484	1.556021
1.271973	1.556016
1.272461	1.556065
1.272949	1.556126
1.273437	1.556273
1.273926	1.556016
1.274414	1.556101
1.274902	1.556218
1.275391	1.556347
1.275879	1.556246
1.276367	1.556198
1.276855	1.556151
1.277344	1.556191
1.277832	1.556404
1.278320	1.556426
1.278809	1.556376
1.279297	1.556325
1.279785	1.556630
1.280273	1.556489
1.280762	1.556611
1.281250	1.556337
1.281738	1.556439
1.282227	1.556501
1.282715	1.556519
1.283203	1.556375
1.283691	1.556367
1.284180	1.556435
1.284668	1.556441
1.285156	1.556473
1.285645	1.556488
1.286133	1.556332
1.286621	1.556475
1.287109	1.556529
1.287598	1.556420
1.288086	1.556507
1.288574	1.556540
1.289062	1.556510
1.289551	1.556451
1.290039	1.556406
1.290527	1.556663
1.291016	1.556502
1.291504	1.556533
1.291992	1.556601
1.292480	1.556580
1.292969	1.556707
1.293457	1.556409
1.293945	1.556440
1.294434	1.556315
1.294922	1.556605
1.295410	1.556242
1.295898	1.556309
1.296387	1.556618
1.296875	1.556545
1.297363	1.556493
1.297852	1.556515
1.298340	1.556461
1.298828	1.556391
1.299316	1.556671
1.299805	1.556361
1.300293	1.556497
1.300781	1.556250
1.301270	1.556383
1.301758	1.556372
1.302246	1.556406
1.302734	1.556446
1.303223	1.556431
1.303711	1.556460
1.304199	1.556217
1.304687	1.556475
1.305176	1.556259
1.305664	1.556446
1.306152	1.556080
1.306641	1.556263
1.307129	1.556204
1.307617	1.556012
1.308105	1.556167
1.308594	1.556122
1.309082	1.556234
1.309570	1.556038
1.310059	1.555982
1.310547	1.556236
1.311035	1.556396
1.311523	1.556176
1.312012	1.556387
1.312500	1.556018
1.312988	1.556423
1.313477	1.556124
1.313965	1.556072
1.314453	1.556099
1.314941	1.556010
1.315430	1.556741
1.315918	1.556300
1.316406	1.556378
1.316895	1.556321
1.317383	1.556056
1.317871	1.556277
1.318359	1.556211
1.318848	1.556167
1.319336	1.556095
1.319824	1.556313
1.320312	1.556178
1.320801	1.556483
1.321289	1.556345
1.321777	1.556431
1.322266	1.556357
1.322754	1.556431
1.323242	1.556225
1.323730	1.556275
1.324219	1.556364
1.324707	1.556355
1.325195	1.556367
1.325684	1.556168
1.326172	1.556290
1.326660	1.556267
1.327148	1.556232
1.327637	1.556157
1.328125	1.556116
1.328613	1.556030
1.329102	1.556079
1.329590	1.556072
1.330078	1.555937
1.330566	1.556070
1.331055	1.555780
1.331543	1.556164
1.332031	1.555839
1.332520	1.555974
1.333008	1.556318
1.333496	1.556175
1.333984	1.556231
1.334473	1.556175
1.334961	1.556029
1.335449	1.556149
1.335937	1.556111
1.336426	1.556101
1.336914	1.556111
1.337402	1.556012
1.337891	1.556117
1.338379	1.556159
1.338867	1.555965
1.339355	1.556006
1.339844	1.556192
1.340332	1.555962
1.340820	1.556136
1.341309	1.556212
1.341797	1.555962
1.342285	1.555760
1.342773	1.555868
1.343262	1.556001
1.343750	1.556069
1.344238	1.555956
1.344727	1.556166
1.345215	1.555917
1.345703	1.556207
1.346191	1.556232
1.346680	1.555981
1.347168	1.556284
1.347656	1.556183
1.348145	1.556327
1.348633	1.556309
1.349121	1.556232
1.349609	1.556197
1.350098	1.556106
1.350586	1.556253
1.351074	1.556060
1.351562	1.556036
1.352051	1.556207
1.352539	1.556240
1.353027	1.556062
1.353516	1.556120
1.354004	1.555792
1.354492	1.556164
1.354980	1.556065
1.355469	1.556173
1.355957	1.556441
1.356445	1.556005
1.356934	1.555994
1.357422	1.556241
1.357910	1.556283
1.358398	1.556128
1.358887	1.556140
1.359375	1.556240
1.359863	1.556201
1.360352	1.556290
1.360840	1.556219
1.361328	1.555936
1.361816	1.556215
1.362305	1.556399
1.362793	1.556162
1.363281	1.556206
1.363770	1.555977
1.364258	1.555933
1.364746	1.556207
1.365234	1.556145
1.365723	1.555932
1.366211	1.556123
1.366699	1.555977
1.367187	1.556192
1.367676	1.556453
1.368164	1.556150
1.368652	1.556462
1.369141	1.556431
1.369629	1.556472
1.370117	1.556248
1.370605	1.556533
1.371094	1.556333
1.371582	1.556370
1.372070	1.556450
1.372559	1.556583
1.373047	1.556088
1.373535	1.556358
1.374023	1.556185
1.374512	1.556261
1.375000	1.556215
1.375488	1.556342
1.375977	1.556198
1.376465	1.556435
1.376953	1.556347
1.377441	1.556492
1.377930	1.556269
1.378418	1.556429
1.378906	1.556391
1.379395	1.556614
1.379883	1.556347
1.380371	1.556549
1.380859	1.556710
1.381348	1.556427
1.381836	1.556436
1.382324	1.556497
1.382812	1.556601
1.383301	1.556539
1.383789	1.556285
1.384277	1.556397
1.384766	1.556631
1.385254	1.556347
1.385742	1.556304
1.386230	1.556578
1.386719	1.556445
1.387207	1.556360
1.387695	1.556573
1.388184	1.556663
1.388672	1.556518
1.389160	1.556588
1.389648	1.556634
1.390137	1.556567
1.390625	1.556610
1.391113	1.556785
1.391602	1.556416
1.392090	1.556475
1.392578	1.556733
1.393066	1.556554
1.393555	1.556583
1.394043	1.556451
1.394531	1.556418
1.395020	1.556529
1.395508	1.556483
1.395996	1.556189
1.396484	1.556469
1.396973	1.556599
1.397461	1.556512
1.397949	1.556451
1.398437	1.556427
1.398926	1.556312
1.399414	1.556435
1.399902	1.556767
1.400391	1.556282
1.400879	1.556674
1.401367	1.556315
1.401855	1.556408
1.402344	1.556561
1.402832	1.556407
1.403320	1.556403
1.403809	1.556490
1.404297	1.556374
1.404785	1.556283
1.405273	1.556291
1.405762	1.556333
1.406250	1.556294
1.406738	1.556168
1.407227	1.556384
1.407715	1.556080
1.408203	1.556257
1.408691	1.556308
1.409180	1.556159
1.409668	1.556206
1.410156	1.556206
1.410645	1.556041
1.411133	1.556309
1.411621	1.556243
1.412109	1.556250
1.412598	1.556082
1.413086	1.556423
1.413574	1.556297
1.414062	1.556201
1.414551	1.556228
1.415039	1.556175
1.415527	1.556289
1.416016	1.556048
1.416504	1.556105
1.416992	1.555909
1.417480	1.555993
1.417969	1.556112
1.418457	1.556179
1.418945	1.556164
1.419434	1.556340
1.419922	1.556290
1.420410	1.556158
1.420898	1.556520
1.421387	1.556248
1.421875	1.556319
1.422363	1.556005
1.422852	1.556333
1.423340	1.556186
1.423828	1.556281
1.424316	1.556223
1.424805	1.556179
1.425293	1.556074
1.425781	1.556249
1.426270	1.556183
1.426758	1.556215
1.427246	1.556412
1.427734	1.556290
1.428223	1.556115
1.428711	1.556202
1.429199	1.556234
1.429687	1.555926
1.430176	1.556149
1.430664	1.556314
1.431152	1.556308
1.431641	1.556167
1.432129	1.556286
1.432617	1.556430
1.433105	1.556282
1.433594	1.556121
1.434082	1.556181
1.434570	1.556231
1.435059	1.556373
1.435547	1.556340
1.436035	1.556309
1.436523	1.556333
1.437012	1.556334
1.437500	1.556318
1.437988	1.556422
1.438477	1.556234
1.438965	1.556335
1.439453	1.556238
1.439941	1.556398
1.440430	1.556480
1.440918	1.556669
1.441406	1.556383
1.441895	1.556580
1.442383	1.556207
1.442871	1.556564
1.443359	1.556394
1.443848	1.556448
1.444336	1.556594
1.444824	1.556428
1.445312	1.556501
1.445801	1.556470
1.446289	1.556613
1.446777	1.556436
1.447266	1.556419
1.447754	1.556472
1.448242	1.556594
1.448730	1.556475
1.449219	1.556428
1.449707	1.556618
1.450195	1.556524
1.450684	1.556632
1.451172	1.556643
1.451660	1.556680
1.452148	1.556704
1.452637	1.556647
1.453125	1.556548
1.453613	1.556505
1.454102	1.556738
1.454590	1.556540
1.455078	1.556824
1.455566	1.556805
1.456055	1.556231
1.456543	1.556683
1.457031	1.556387
1.457520	1.556671
1.458008	1.556816
1.458496	1.556809
1.458984	1.556775
1.459473	1.556773
1.459961	1.556815
1.460449	1.556632
1.460937	1.556830
1.461426	1.556677
1.461914	1.556784
1.462402	1.556552
1.462891	1.556591
1.463379	1.556533
1.463867	1.556608
1.464355	1.556655
1.464844	1.556629
1.465332	1.556715
1.465820	1.556730
1.466309	1.556673
1.466797	1.556669
1.467285	1.556688
1.467773	1.556834
1.468262	1.556637
1.468750	1.556530
1.469238	1.556718
1.469727	1.556316
1.470215	1.556655
1.470703	1.556530
1.471191	1.556482
1.471680	1.556303
1.472168	1.556376
1.472656	1.556663
1.473145	1.556560
1.473633	1.556675
1.474121	1.556331
1.474609	1.556508
1.475098	1.556326
1.475586	1.556441
1.476074	1.556375
1.476562	1.556372
1.477051	1.556209
1.477539	1.556314
1.478027	1.556353
1.478516	1.556239
1.479004	1.556424
1.479492	1.556325
1.479980	1.556312
1.480469	1.556505
1.480957	1.556542
1.481445	1.556297
1.481934	1.556392
1.482422	1.556466
1.482910	1.556464
1.483398	1.556431
1.483887	1.556298
1.484375	1.556366
1.484863	1.556452
1.485352	1.556328
1.485840	1.556477
1.486328	1.556169
1.486816	1.556475
1.487305	1.556584
1.487793	1.556566
1.488281	1.556339
1.488770	1.556389
1.489258	1.556492
1.489746	1.556079
1.490234	1.556239
1.490723	1.556384
1.491211	1.556146
1.491699	1.556201
1.492187	1.556273
1.492676	1.556448
1.493164	1.556139
1.493652	1.556308
1.494141	1.556107
1.494629	1.556074
1.495117	1.556101
1.495605	1.556170
1.496094	1.555915
1.496582	1.556066
1.497070	1.556195
1.497559	1.556141
1.498047	1.555976
1.498535	1.556070
1.499023	1.556304
1.499512	1.556019
1.500000	1.556229
1.500488	1.556254
1.500977	1.556155
1.501465	1.556028
1.501953	1.556128
1.502441	1.556007
1.502930	1.555997
1.503418	1.555999
1.503906	1.555829
1.504395	1.556047
1.504883	1.556000
1.505371	1.555979
1.505859	1.555731
1.506348	1.556310
1.506836	1.555973
1.507324	1.555803
1.507812	1.555960
1.508301	1.556041
1.508789	1.556040
1.509277	1.556016
1.509766	1.556076
1.510254	1.556084
1.510742	1.556103
1.511230	1.555983
1.511719	1.556132
1.512207	1.555853
1.512695	1.556084
1.513184	1.556047
1.513672	1.556129
1.514160	1.555952
1.514648	1.555998
1.515137	1.555776
1.515625	1.556088
1.516113	1.555758
1.516602	1.555807
1.517090	1.556281
1.517578	1.556052
1.518066	1.556018
1.518555	1.555888
1.519043	1.556071
1.519531	1.555874
1.520020	1.556345
1.520508	1.556125
1.520996	1.556011
1.521484	1.556041
1.521973	1.556145
1.522461	1.555978
1.522949	1.555958
1.523437	1.555962
1.523926	1.555866
1.524414	1.556005
1.524902	1.555966
1.525391	1.555972
1.525879	1.555887
1.526367	1.556248
1.526855	1.556179
1.527344	1.556343
1.527832	1.556193
1.528320	1.556179
1.528809	1.556149
1.529297	1.556137
1.529785	1.556043
1.530273	1.556085
1.530762	1.556359
1.531250	1.556048
1.531738	1.556315
1.532227	1.556156
1.532715	1.556436
1.533203	1.556265
1.533691	1.556131
1.534180	1.556049
1.534668	1.556090
1.535156	1.556107
1.535645	1.555953
1.536133	1.556123
1.536621	1.556016
1.537109	1.556156
1.537598	1.555883
1.538086	1.556224
1.538574	1.556124
1.539062	1.556270
1.539551	1.556161
1.540039	1.556207
1.540527	1.556087
1.541016	1.556115
1.541504	1.556034
1.541992	1.556163
1.542480	1.556066
1.542969	1.556011
1.543457	1.556135
1.543945	1.555999
1.544434	1.555875
1.544922	1.555888
1.545410	1.556048
1.545898	1.556130
1.546387	1.556004
1.546875	1.555919
1.547363	1.555915
1.547852	1.556031
1.548340	1.555996
1.548828	1.556104
1.549316	1.556060
1.549805	1.556093
1.550293	1.556004
1.550781	1.556123
1.551270	1.555946
1.551758	1.556231
1.552246	1.556220
1.552734	1.556043
1.553223	1.556301
1.553711	1.555731
1.554199	1.556016
1.554687	1.555974
1.555176	1.555970
1.555664	1.555991
1.556152	1.556110
1.556641	1.556091
1.557129	1.555903
1.557617	1.556121
1.558105	1.556085
1.558594	1.556180
1.559082	1.555739
1.559570	1.556117
1.560059	1.555985
1.560547	1.556006
1.561035	1.555855
1.561523	1.555928
1.562012	1.555969
1.562500	1.555869
1.562988	1.556361
1.563477	1.555940
1.563965	1.556214
1.564453	1.556156
1.564941	1.556223
1.565430	1.556023
1.565918	1.556146
1.566406	1.556214
1.566895	1.556236
1.567383	1.555979
1.567871	1.556171
1.568359	1.555966
1.568848	1.556165
1.569336	1.555930
1.569824	1.556142
1.570312	1.556015
1.570801	1.556318
1.571289	1.556160
1.571777	1.556178
1.572266	1.556231
1.572754	1.556276
1.573242	1.556187
1.573730	1.556218
1.574219	1.556348
1.574707	1.556049
1.575195	1.556145
1.575684	1.556038
1.576172	1.555926
1.576660	1.556287
1.577148	1.556209
1.577637	1.556520
1.578125	1.556124
1.578613	1.556126
1.579102	1.556188
1.579590	1.556022
1.580078	1.556134
1.580566	1.556242
1.581055	1.556140
1.581543	1.556204
1.582031	1.556068
1.582520	1.556156
1.583008	1.556028
1.583496	1.556099
1.583984	1.556070
1.584473	1.556026
1.584961	1.556195
1.585449	1.556183
1.585937	1.556076
1.586426	1.556151
1.586914	1.556079
1.587402	1.555956
1.587891	1.556170
1.588379	1.556102
1.588867	1.556091
1.589355	1.556071
1.589844	1.556081
1.590332	1.555898
1.590820	1.556093
1.591309	1.556223
1.591797	1.556188
1.592285	1.556022
1.592773	1.556256
1.593262	1.556072
1.593750	1.556175
1.594238	1.556186
1.594727	1.556326
1.595215	1.556241
1.595703	1.556279
1.596191	1.556123
1.596680	1.556224
1.597168	1.556232
1.597656	1.556300
1.598145	1.556276
1.598633	1.556404
1.599121	1.556218
1.599609	1.556129
1.600098	1.556193
1.600586	1.556309
1.601074	1.556266
1.601562	1.556024
1.602051	1.556402
1.602539	1.556005
1.603027	1.556555
1.603516	1.556253
1.604004	1.556245
1.604492	1.556322
1.604980	1.556510
1.605469	1.556322
1.605957	1.556319
1.606445	1.556341
1.606934	1.556556
1.607422	1.556311
1.607910	1.556351
1.608398	1.556196
1.608887	1.556328
1.609375	1.556376
1.609863	1.556288
1.610352	1.556336
1.610840	1.556342
1.611328	1.556325
1.611816	1.556228
1.612305	1.556566
1.612793	1.556330
1.613281	1.556553
1.613770	1.556381
1.614258	1.556305
1.614746	1.556572
1.615234	1.556448
1.615723	1.556366
1.616211	1.556375
1.616699	1.556547
1.617187	1.556430
1.617676	1.556395
1.618164	1.556242
1.618652	1.556458
1.619141	1.556471
1.619629	1.556533
1.620117	1.556791
1.620605	1.556555
1.621094	1.556707
1.621582	1.556848
1.622070	1.556688
1.622559	1.556720
1.623047	1.556557
1.623535	1.556789
1.624023	1.556551
1.624512	1.556287
1.625000	1.556774
1.625488	1.556550
1.625977	1.556555
1.626465	1.556563
1.626953	1.556669
1.627441	1.556505
1.627930	1.556561
1.628418	1.556448
1.628906	1.556435
1.629395	1.556364
1.629883	1.556385
1.630371	1.556528
1.630859	1.556649
1.631348	1.556564
1.631836	1.556391
1.632324	1.556466
1.632812	1.556614
1.633301	1.556591
1.633789	1.556580
1.634277	1.556618
1.634766	1.556621
1.635254	1.556661
1.635742	1.556491
1.636230	1.556741
1.636719	1.556332
1.637207	1.556308
1.637695	1.556622
1.638184	1.556511
1.638672	1.556384
1.639160	1.556374
1.639648	1.556480
1.640137	1.556675
1.640625	1.556551
1.641113	1.556579
1.641602	1.556362
1.642090	1.556547
1.642578	1.556599
1.643066	1.556511
1.643555	1.556818
1.644043	1.556309
1.644531	1.556486
1.645020	1.556359
1.645508	1.556265
1.645996	1.556501
1.646484	1.556369
1.646973	1.556546
1.647461	1.556476
1.647949	1.556346
1.648437	1.556402
1.648926	1.556560
1.649414	1.556261
1.649902	1.556394
1.650391	1.556317
1.650879	1.556520
1.651367	1.556340
1.651855	1.556461
1.652344	1.556361
1.652832	1.556419
1.653320	1.556063
1.653809	1.556197
1.654297	1.556314
1.654785	1.556268
1.655273	1.556386
1.655762	1.556257
1.656250	1.556240
1.656738	1.556295
1.657227	1.556392
1.657715	1.556165
1.658203	1.556317
1.658691	1.556229
1.659180	1.556266
1.659668	1.556097
1.660156	1.556113
1.660645	1.555980
1.661133	1.556159
1.661621	1.556076
1.662109	1.556143
1.662598	1.556119
1.663086	1.556105
1.663574	1.556396
1.664062	1.556112
1.664551	1.556129
1.665039	1.556115
1.665527	1.556070
1.666016	1.555957
1.666504	1.556120
1.666992	1.556046
1.667480	1.555890
1.667969	1.556108
1.668457	1.556046
1.668945	1.555835
1.669434	1.555960
1.669922	1.556066
1.670410	1.556116
1.670898	1.556049
1.671387	1.555928
1.671875	1.556223
1.672363	1.555689
1.672852	1.555830
1.673340	1.555699
1.673828	1.555612
1.674316	1.555787
1.674805	1.555782
1.675293	1.555746
1.675781	1.555932
1.676270	1.555838
1.676758	1.555841
1.677246	1.555814
1.677734	1.555686
1.678223	1.555728
1.678711	1.555852
1.679199	1.555663
1.679687	1.555753
1.680176	1.555765
1.680664	1.555393
1.681152	1.555700
1.681641	1.555631
1.682129	1.555705
1.682617	1.555716
1.683105	1.555764
1.683594	1.555966
1.684082	1.555707
1.684570	1.555931
1.685059	1.555715
1.685547	1.555764
1.686035	1.555575
1.686523	1.555804
1.687012	1.555738
1.687500	1.555821
1.687988	1.555663
1.688477	1.555828
1.688965	1.555618
1.689453	1.555932
1.689941	1.556039
1.690430	1.555982
1.690918	1.556142
1.691406	1.555908
1.691895	1.555973
1.692383	1.555750
1.692871	1.555842
1.693359	1.555810
1.693848	1.555802
1.694336	1.555675
1.694824	1.555744
1.695312	1.555821
1.695801	1.555814
1.696289	1.555451
1.696777	1.556030
1.697266	1.555631
1.697754	1.555956
1.698242	1.555962
1.698730	1.555991
1.699219	1.555984
1.699707	1.556010
1.700195	1.555868
1.700684	1.556218
1.701172	1.555976
1.701660	1.556229
1.702148	1.556093
1.702637	1.556131
1.703125	1.555922
1.703613	1.555823
1.704102	1.556036
1.704590	1.555899
1.705078	1.556035
1.705566	1.555937
1.706055	1.556223
1.706543	1.555939
1.707031	1.556216
1.707520	1.556095
1.708008	1.556192
1.708496	1.556061
1.708984	1.556154
1.709473	1.556145
1.709961	1.555891
1.710449	1.556167
1.710937	1.556420
1.711426	1.556216
1.711914	1.556139
1.712402	1.556320
1.712891	1.556389
1.713379	1.556151
1.713867	1.556283
1.714355	1.556171
1.714844	1.556048
1.715332	1.556404
1.715820	1.556395
1.716309	1.556214
1.716797	1.556219
1.717285	1.556516
1.717773	1.556171
1.718262	1.556323
1.718750	1.556444
1.719238	1.556382
1.719727	1.556222
1.720215	1.556337
1.720703	1.556589
1.721191	1.556338
1.721680	1.556682
1.722168	1.556369
1.722656	1.556430
1.723145	1.556405
1.723633	1.556409
1.724121	1.556254
1.724609	1.556082
1.725098	1.556343
1.725586	1.556554
1.726074	1.556255
1.726562	1.556256
1.727051	1.556482
1.727539	1.556259
1.728027	1.556312
1.728516	1.556371
1.729004	1.556309
1.729492	1.556376
1.729980	1.556478
1.730469	1.556513
1.730957	1.556560
1.731445	1.556147
1.731934	1.556400
1.732422	1.556534
1.732910	1.556194
1.733398	1.556581
1.733887	1.556377
1.734375	1.556386
1.734863	1.556413
1.735352	1.556333
1.735840	1.556603
1.736328	1.556145
1.736816	1.556334
1.737305	1.556439
1.737793	1.556456
1.738281	1.556347
1.738770	1.556673
1.739258	1.556649
1.739746	1.556569
1.740234	1.556647
1.740723	1.556695
1.741211	1.556594
1.741699	1.556671
1.742187	1.556567
1.742676	1.556681
1.743164	1.556561
1.743652	1.556494
1.744141	1.556650
1.744629	1.556649
1.745117	1.556494
1.745605	1.556440
1.746094	1.556486
1.746582	1.556517
1.747070	1.556512
1.747559	1.556496
1.748047	1.556647
1.748535	1.556721
1.749023	1.556553
1.749512	1.556411
1.750000	1.556505
1.750488	1.556599
1.750977	1.556618
1.751465	1.556455
1.751953	1.556614
1.752441	1.556406
1.752930	1.556424
1.753418	1.556304
1.753906	1.556206
1.754395	1.556412
1.754883	1.556295
1.755371	1.556247
1.755859	1.556255
1.756348	1.556143
1.756836	1.556216
1.757324	1.556030
1.757812	1.556270
1.758301	1.556070
1.758789	1.556398
1.759277	1.556211
1.759766	1.556186
1.760254	1.556340
1.760742	1.556261
1.761230	1.556245
1.761719	1.556264
1.762207	1.556431
1.762695	1.555943
1.763184	1.556200
1.763672	1.556279
1.764160	1.556092
1.764648	1.556149
1.765137	1.556116
1.765625	1.556227
1.766113	1.555976
1.766602	1.555966
1.767090	1.556178
1.767578	1.555905
1.768066	1.556044
1.768555	1.555923
1.769043	1.556079
1.769531	1.556041
1.770020	1.555860
1.770508	1.555994
1.770996	1.556029
1.771484	1.555891
1.771973	1.556046
1.772461	1.556009
1.772949	1.556066
1.773437	1.555887
1.773926	1.555832
1.774414	1.555799
1.774902	1.555846
1.775391	1.556006
1.775879	1.556140
1.776367	1.555955
1.776855	1.555926
1.777344	1.556065
1.777832	1.555960
1.778320	1.555904
1.778809	1.555949
1.779297	1.555910
1.779785	1.556053
1.780273	1.555852
1.780762	1.556010
1.781250	1.555969
1.781738	1.555932
1.782227	1.556129
1.782715	1.555856
1.783203	1.556000
1.783691	1.555678
1.784180	1.555766
1.784668	1.556224
1.785156	1.555965
1.785645	1.556226
1.786133	1.556222
1.786621	1.556086
1.787109	1.556107
1.787598	1.556200
1.788086	1.556140
1.788574	1.556253
1.789062	1.556233
1.789551	1.556253
1.790039	1.556041
1.790527	1.556389
1.791016	1.556193
1.791504	1.556114
1.791992	1.556010
1.792480	1.556328
1.792969	1.556189
1.793457	1.556347
1.793945	1.556068
1.794434	1.556173
1.794922	1.556293
1.795410	1.556216
1.795898	1.556273
1.796387	1.556048
1.796875	1.556196
1.797363	1.556258
1.797852	1.556209
1.798340	1.556345
1.798828	1.556226
1.799316	1.556218
1.799805	1.556470
1.800293	1.556533
1.800781	1.556257
1.801270	1.556151
1.801758	1.556397
1.802246	1.556344
1.802734	1.556281
1.803223	1.556370
1.803711	1.556182
1.804199	1.556223
1.804687	1.556467
1.805176	1.556286
1.805664	1.556237
1.806152	1.556209
1.806641	1.556581
1.807129	1.556242
1.807617	1.556171
1.808105	1.556251
1.808594	1.555944
1.809082	1.556122
1.809570	1.556257
1.810059	1.556214
1.810547	1.556282
1.811035	1.556392
1.811523	1.556357
1.812012	1.556059
1.812500	1.556245
1.812988	1.556292
1.813477	1.556265
1.813965	1.556171
1.814453	1.556195
1.814941	1.556056
1.815430	1.556068
1.815918	1.556101
1.816406	1.556196
1.816895	1.555982
1.817383	1.556268
1.817871	1.556130
1.818359	1.556193
1.818848	1.556046
1.819336	1.556181
1.819824	1.556032
1.820312	1.556090
1.820801	1.556207
1.821289	1.556409
1.821777	1.556196
1.822266	1.556098
1.822754	1.556223
1.823242	1.556157
1.823730	1.556233
1.824219	1.556267
1.824707	1.556355
1.825195	1.556325
1.825684	1.556265
1.826172	1.556478
1.826660	1.556126
1.827148	1.556338
1.827637	1.556223
1.828125	1.556350
1.828613	1.556306
1.829102	1.556452
1.829590	1.556331
1.830078	1.556359
1.830566	1.556449
1.831055	1.556477
1.831543	1.556372
1.832031	1.556580
1.832520	1.556363
1.833008	1.556747
1.833496	1.556476
1.833984	1.556175
1.834473	1.556492
1.834961	1.556387
1.835449	1.556382
1.835937	1.556461
1.836426	1.556569
1.836914	1.556688
1.837402	1.556675
1.837891	1.556596
1.838379	1.556715
1.838867	1.556434
1.839355	1.556584
1.839844	1.556418
1.840332	1.556373
1.840820	1.556757
1.841309	1.556650
1.841797	1.556484
1.842285	1.556660
1.842773	1.556571
1.843262	1.556409
1.843750	1.556515
1.844238	1.556489
1.844727	1.556601
1.845215	1.556388
1.845703	1.556779
1.846191	1.556605
1.846680	1.556751
1.847168	1.556594
1.847656	1.556470
1.848145	1.556343
1.848633	1.556451
1.849121	1.556447
1.849609	1.556319
1.850098	1.556658
1.850586	1.556599
1.851074	1.556492
1.851562	1.556474
1.852051	1.556488
1.852539	1.556592
1.853027	1.556079
1.853516	1.556475
1.854004	1.556576
1.854492	1.556547
1.854980	1.556566
1.855469	1.556521
1.855957	1.556580
1.856445	1.556459
1.856934	1.556456
1.857422	1.556300
1.857910	1.556303
1.858398	1.556236
1.858887	1.556312
1.859375	1.556255
1.859863	1.556272
1.860352	1.556440
1.860840	1.556364
1.861328	1.556218
1.861816	1.556265
1.862305	1.556264
1.862793	1.556169
1.863281	1.556204
1.863770	1.556302
1.864258	1.556054
1.864746	1.556406
1.865234	1.556147
1.865723	1.556268
1.866211	1.556252
1.866699	1.556442
1.867187	1.556263
1.867676	1.556467
1.868164	1.556386
1.868652	1.556412
1.869141	1.556414
1.869629	1.556381
1.870117	1.556395
1.870605	1.556538
1.871094	1.556384
1.871582	1.556364
1.872070	1.556216
1.872559	1.556292
1.873047	1.556348
1.873535	1.556132
1.874023	1.556335
1.874512	1.556297
1.875000	1.556214
1.875488	1.556188
1.875977	1.556246
1.876465	1.556051
1.876953	1.556072
1.877441	1.556199
1.877930	1.556129
1.878418	1.556113
1.878906	1.556136
1.879395	1.556072
1.879883	1.556162
1.880371	1.556043
1.880859	1.556202
1.881348	1.556229
1.881836	1.555919
1.882324	1.555822
1.882812	1.556119
1.883301	1.556079
1.883789	1.555860
1.884277	1.555889
1.884766	1.556066
1.885254	1.555867
1.885742	1.556046
1.886230	1.555955
1.886719	1.555813
1.887207	1.555917
1.887695	1.555672
1.888184	1.555854
1.888672	1.555769
1.889160	1.555881
1.889648	1.555838
1.890137	1.555821
1.890625	1.556189
1.891113	1.555629
1.891602	1.555725
1.892090	1.555857
1.892578	1.555742
1.893066	1.555957
1.893555	1.555658
1.894043	1.555953
1.894531	1.555607
1.895020	1.555592
1.895508	1.555711
1.895996	1.555500
1.896484	1.555552
1.896973	1.555752
1.897461	1.555732
1.897949	1.555581
1.898437	1.555657
1.898926	1.555802
1.899414	1.555631
1.899902	1.555647
1.900391	1.555972
1.900879	1.555765
1.901367	1.555998
1.901855	1.555832
1.902344	1.555854
1.902832	1.555674
1.903320	1.555934
1.903809	1.555760
1.904297	1.555636
1.904785	1.555613
1.905273	1.555697
1.905762	1.555588
1.906250	1.555764
1.906738	1.555685
1.907227	1.555656
1.907715	1.555906
1.908203	1.555797
1.908691	1.555903
1.909180	1.555746
1.909668	1.555951
1.910156	1.555910
1.910645	1.555993
1.911133	1.556020
1.911621	1.556119
1.912109	1.555897
1.912598	1.556021
1.913086	1.556203
1.913574	1.556120
1.914062	1.555995
1.914551	1.556084
1.915039	1.556000
1.915527	1.556029
1.916016	1.555885
1.916504	1.556093
1.916992	1.555603
1.917480	1.555951
1.917969	1.555883
1.918457	1.555999
1.918945	1.555764
1.919434	1.556093
1.919922	1.556065
1.920410	1.556322
1.920898	1.556370
1.921387	1.556006
1.921875	1.556110
1.922363	1.556132
1.922852	1.556096
1.923340	1.556063
1.923828	1.556012
1.924316	1.556041
1.924805	1.556121
1.925293	1.555926
1.925781	1.556049
1.926270	1.556044
1.926758	1.556112
1.927246	1.556145
1.927734	1.556035
1.928223	1.556120
1.928711	1.555985
1.929199	1.556013
1.929687	1.556327
1.930176	1.556189
1.930664	1.556583
1.931152	1.556298
1.931641	1.556426
1.932129	1.556249
1.932617	1.556392
1.933105	1.556332
1.933594	1.556304
1.934082	1.556314
1.934570	1.556413
1.935059	1.556254
1.935547	1.556308
1.936035	1.556063
1.936523	1.556287
1.937012	1.556007
1.937500	1.556182
1.937988	1.556348
1.938477	1.556215
1.938965	1.556341
1.939453	1.556314
1.939941	1.556209
1.940430	1.556510
1.940918	1.556410
1.941406	1.556286
1.941895	1.556339
1.942383	1.555988
1.942871	1.556203
1.943359	1.556312
1.943848	1.556044
1.944336	1.556291
1.944824	1.556355
1.945312	1.556171
1.945801	1.556236
1.946289	1.556334
1.946777	1.556145
1.947266	1.556093
1.947754	1.556051
1.948242	1.556234
1.948730	1.556087
1.949219	1.556003
1.949707	1.556505
1.950195	1.556251
1.950684	1.556521
1.951172	1.556330
1.951660	1.556187
1.952148	1.556359
1.952637	1.556169
1.953125	1.556400
1.953613	1.556389
1.954102	1.556201
1.954590	1.556386
1.955078	1.556328
1.955566	1.556202
1.956055	1.556478
1.956543	1.556373
1.957031	1.556319
1.957520	1.556392
1.958008	1.556608
1.958496	1.556510
1.958984	1.556618
1.959473	1.556344
1.959961	1.556453
1.960449	1.556644
1.960937	1.556392
1.961426	1.556747
1.961914	1.556578
1.962402	1.556681
1.962891	1.556659
1.963379	1.556314
1.963867	1.556453
1.964355	1.556337
1.964844	1.556510
1.965332	1.556474
1.965820	1.556699
1.966309	1.556408
1.966797	1.556530
1.967285	1.556579
1.967773	1.556436
1.968262	1.556405
1.968750	1.556486
1.969238	1.556538
1.969727	1.556459
1.970215	1.556611
1.970703	1.556675
1.971191	1.556549
1.971680	1.556585
1.972168	1.556582
1.972656	1.556546
1.973145	1.556348
1.973633	1.556257
1.974121	1.556458
1.974609	1.556499
1.975098	1.556625
1.975586	1.556408
1.976074	1.556595
1.976562	1.556457
1.977051	1.556074
1.977539	1.556496
1.978027	1.556275
1.978516	1.556383
1.979004	1.556561
1.979492	1.556381
1.979980	1.556333
1.980469	1.556439
1.980957	1.556749
1.981445	1.556134
1.981934	1.556428
1.982422	1.556137
1.982910	1.556281
1.983398	1.556193
1.983887	1.556340
1.984375	1.556053
1.984863	1.556134
1.985352	1.556283
1.985840	1.556132
1.986328	1.555943
1.986816	1.556347
1.987305	1.556171
1.987793	1.556397
1.988281	1.556365
1.988770	1.555993
1.989258	1.556153
1.989746	1.556069
1.990234	1.555996
1.990723	1.556057
1.991211	1.556306
1.991699	1.556030
1.992187	1.556233
1.992676	1.556234
1.993164	1.556316
1.993652	1.556210
1.994141	1.556350
1.994629	1.556220
1.995117	1.556394
1.995605	1.556495
1.996094	1.556268
1.996582	1.556450
1.997070	1.556298
1.997559	1.556294
1.998047	1.556455
1.998535	1.556490
1.999023	1.556334
1.999512	1.556393
2.000000	1.556301
2.000488	1.556588
2.000977	1.556502
2.001465	1.556514
2.001953	1.556400
2.002441	1.556569
2.002930	1.556403
2.003418	1.556592
2.003906	1.556474
2.004395	1.556015
2.004883	1.556610
2.005371	1.556627
2.005859	1.556595
2.006348	1.556442
2.006836	1.556454
2.007324	1.556586
2.007812	1.556397
2.008301	1.556402
2.008789	1.556428
2.009277	1.556212
2.009766	1.556351
2.010254	1.556347
2.010742	1.556663
2.011230	1.556439
2.011719	1.556315
2.012207	1.556452
2.012695	1.556181
2.013184	1.556322
2.013672	1.556275
2.014160	1.556347
2.014648	1.556367
2.015137	1.556411
2.015625	1.556469
2.016113	1.556520
2.016602	1.556389
2.017090	1.556370
2.017578	1.556434
2.018066	1.556252
2.018555	1.556401
2.019043	1.556295
2.019531	1.556353
2.020020	1.556451
2.020508	1.556211
2.020996	1.556436
2.021484	1.556171
2.021973	1.556219
2.022461	1.556235
2.022949	1.556269
2.023437	1.556136
2.023926	1.556175
2.024414	1.556289
2.024902	1.556049
2.025391	1.556203
2.025879	1.556082
2.026367	1.556034
2.026855	1.556200
2.027344	1.555785
2.027832	1.555967
2.028320	1.555976
2.028809	1.556183
2.029297	1.556201
2.029785	1.556245
2.030273	1.556283
2.030762	1.556128
2.031250	1.556034
2.031738	1.555833
2.032227	1.556092
2.032715	1.556124
2.033203	1.556074
2.033691	1.555958
2.034180	1.556100
2.034668	1.555941
2.035156	1.556246
2.035645	1.556057
2.036133	1.556320
2.036621	1.556348
2.037109	1.556122
2.037598	1.556175
2.038086	1.556451
2.038574	1.556092
2.039062	1.555975
2.039551	1.556330
2.040039	1.556345
2.040527	1.556396
2.041016	1.556274
2.041504	1.556286
2.041992	1.556125
2.042480	1.556280
2.042969	1.556449
2.043457	1.556425
2.043945	1.556295
2.044434	1.556355
2.044922	1.556406
2.045410	1.555996
2.045898	1.556377
2.046387	1.556260
2.046875	1.556544
2.047363	1.556524
2.047852	1.556444
2.048340	1.556553
2.048828	1.556297
2.049316	1.556372
2.049805	1.556291
2.050293	1.556359
2.050781	1.556417
2.051270	1.556283
2.051758	1.556215
2.052246	1.556330
2.052734	1.556084
2.053223	1.556373
2.053711	1.556327
2.054199	1.556379
2.054687	1.556398
2.055176	1.556265
2.055664	1.556508
2.056152	1.556406
2.056641	1.556384
2.057129	1.556303
2.057617	1.556569
2.058105	1.556502
2.058594	1.556374
2.059082	1.556369
2.059570	1.556402
2.060059	1.556121
2.060547	1.556618
2.061035	1.556183
2.061523	1.556481
2.062012	1.556564
2.062500	1.556435
2.062988	1.556464
2.063477	1.556333
2.063965	1.556580
2.064453	1.556363
2.064941	1.556283
2.065430	1.556627
2.065918	1.556604
2.066406	1.556632
2.066895	1.556527
2.067383	1.556591
2.067871	1.556441
2.068359	1.556599
2.068848	1.556572
2.069336	1.556435
2.069824	1.556279
2.070312	1.556300
2.070801	1.556678
2.071289	1.556349
2.071777	1.556179
2.072266	1.556320
2.072754	1.556145
2.073242	1.556259
2.073730	1.556251
2.074219	1.556226
2.074707	1.556062
2.075195	1.556370
2.075684	1.556345
2.076172	1.556230
2.076660	1.556392
2.077148	1.556146
2.077637	1.556188
2.078125	1.556275
2.078613	1.556268
2.079102	1.556211
2.079590	1.556150
2.080078	1.556021
2.080566	1.556293
2.081055	1.556120
2.081543	1.556149
2.082031	1.556359
2.082520	1.556147
2.083008	1.556539
2.083496	1.555941
2.083984	1.556144
2.084473	1.556189
2.084961	1.556054
2.085449	1.556375
2.085937	1.556312
2.086426	1.556361
2.086914	1.556475
2.087402	1.556575
2.087891	1.556154
2.088379	1.556233
2.088867	1.556190
2.089355	1.556221
2.089844	1.556105
2.090332	1.556242
2.090820	1.556333
2.091309	1.556007
2.091797	1.556045
2.092285	1.556294
2.092773	1.556108
2.093262	1.555977
2.093750	1.556188
2.094238	1.556133
2.094727	1.556252
2.095215	1.556080
2.095703	1.556229
2.096191	1.556045
2.096680	1.555927
2.097168	1.556143
2.097656	1.556157
2.098145	1.556116
2.098633	1.556176
2.099121	1.556367
2.099609	1.556059
2.100098	1.556619
2.100586	1.556407
2.101074	1.556333
2.101562	1.556320
2.102051	1.556274
2.102539	1.556295
2.103027	1.556285
2.103516	1.556123
2.104004	1.556289
2.104492	1.556268
2.104980	1.556311
2.105469	1.556102
2.105957	1.556311
2.106445	1.556419
2.106934	1.556276
2.107422	1.556524
2.107910	1.556388
2.108398	1.556461
2.108887	1.556455
2.109375	1.556483
2.109863	1.556237
2.110352	1.556267
2.110840	1.556569
2.111328	1.556481
2.111816	1.556455
2.112305	1.556422
2.112793	1.556322
2.113281	1.556448
2.113770	1.556469
2.114258	1.556403
2.114746	1.556583
2.115234	1.556315
2.115723	1.556498
2.116211	1.556171
2.116699	1.556062
2.117187	1.556312
2.117676	1.556261
2.118164	1.556287
2.118652	1.556389
2.119141	1.556152
2.119629	1.556283
2.120117	1.556339
2.120605	1.556343
2.121094	1.556361
2.121582	1.556182
2.122070	1.556287
2.122559	1.556429
2.123047	1.556337
2.123535	1.556268
2.124023	1.556195
2.124512	1.556021
2.125000	1.556297
2.125488	1.556193
2.125977	1.556272
2.126465	1.556032
2.126953	1.556295
2.127441	1.556431
2.127930	1.556261
2.128418	1.556144
2.128906	1.556320
2.129395	1.556255
2.129883	1.556357
2.130371	1.556362
2.130859	1.556397
2.131348	1.556289
2.131836	1.556503
2.132324	1.556340
2.132812	1.556184
2.133301	1.556373
2.133789	1.556166
2.134277	1.556147
2.134766	1.556564
2.135254	1.556295
2.135742	1.556337
2.136230	1.556359
2.136719	1.556308
2.137207	1.556201
2.137695	1.556081
2.138184	1.556164
2.138672	1.556224
2.139160	1.556214
2.139648	1.556073
2.140137	1.556467
2.140625	1.556181
2.141113	1.556367
2.141602	1.556369
2.142090	1.556417
2.142578	1.556325
2.143066	1.556423
2.143555	1.556234
2.144043	1.556014
2.144531	1.556095
2.145020	1.556177
2.145508	1.555974
2.145996	1.556147
2.146484	1.555980
2.146973	1.555970
2.147461	1.555995
2.147949	1.555897
2.148437	1.555938
2.148926	1.555991
2.149414	1.555843
2.149902	1.556038
2.150391	1.556086
2.150879	1.555883
2.151367	1.556079
2.151855	1.556027
2.152344	1.555860
2.152832	1.556077
2.153320	1.556134
2.153809	1.556268
2.154297	1.555991
2.154785	1.555962
2.155273	1.556092
2.155762	1.556192
2.156250	1.555872
2.156738	1.556092
2.157227	1.555811
2.157715	1.555753
2.158203	1.556074
2.158691	1.555785
2.159180	1.555962
2.159668	1.556012
2.160156	1.555962
2.160645	1.556128
2.161133	1.556137
2.161621	1.555984
2.162109	1.555912
2.162598	1.556061
2.163086	1.556061
2.163574	1.556051
2.164062	1.556062
2.164551	1.556069
2.165039	1.556080
2.165527	1.556026
2.166016	1.556207
2.166504	1.556190
2.166992	1.556195
2.167480	1.556221
2.167969	1.556128
2.168457	1.556165
2.168945	1.555927
2.169434	1.556056
2.169922	1.556077
2.170410	1.556115
2.170898	1.556239
2.171387	1.556223
2.171875	1.555971
2.172363	1.556115
2.172852	1.556081
2.173340	1.556210
2.173828	1.556109
2.174316	1.555839
2.174805	1.556340
2.175293	1.556139
2.175781	1.556041
2.176270	1.556164
2.176758	1.556196
2.177246	1.556025
2.177734	1.556256
2.178223	1.556138
2.178711	1.556209
2.179199	1.556064
2.179687	1.556135
2.180176	1.556059
2.180664	1.556067
2.181152	1.556410
2.181641	1.556057
2.182129	1.556117
2.182617	1.556037
2.183105	1.556068
2.183594	1.555975
2.184082	1.556059
2.184570	1.556079
2.185059	1.556022
2.185547	1.555924
2.186035	1.555854
2.186523	1.556140
2.187012	1.556005
2.187500	1.556101
2.187988	1.556072
2.188477	1.556034
2.188965	1.556217
2.189453	1.556403
2.189941	1.555904
2.190430	1.556057
2.190918	1.556095
2.191406	1.556143
2.191895	1.556188
2.192383	1.556051
2.192871	1.556095
2.193359	1.556182
2.193848	1.555964
2.194336	1.556043
2.194824	1.556083
2.195312	1.556187
2.195801	1.556312
2.196289	1.556115
2.196777	1.555993
2.197266	1.556007
2.197754	1.556159
2.198242	1.555952
2.198730	1.555831
2.199219	1.556165
2.199707	1.556111
2.200195	1.556121
2.200684	1.556260
2.201172	1.556342
2.201660	1.556096
2.202148	1.556157
2.202637	1.556254
2.203125	1.556179
2.203613	1.556106
2.204102	1.556123
2.204590	1.556062
2.205078	1.556417
2.205566	1.556022
2.206055	1.556125
2.206543	1.556284
2.207031	1.556175
2.207520	1.556566
2.208008	1.556320
2.208496	1.556364
2.208984	1.556466
2.209473	1.556415
2.209961	1.556505
2.210449	1.556662
2.210937	1.556389
2.211426	1.556535
2.211914	1.556498
2.212402	1.556618
2.212891	1.556484
2.213379	1.556510
2.213867	1.556606
2.214355	1.556323
2.214844	1.556474
2.215332	1.556382
2.215820	1.556155
2.216309	1.556480
2.216797	1.556317
2.217285	1.556372
2.217773	1.556430
2.218262	1.556392
2.218750	1.556507
2.219238	1.556492
2.219727	1.556431
2.220215	1.556533
2.220703	1.556522
2.221191	1.556493
2.221680	1.556546
2.222168	1.556655
2.222656	1.556503
2.223145	1.556715
2.223633	1.556522
2.224121	1.556193
2.224609	1.556597
2.225098	1.556520
2.225586	1.556518
2.226074	1.556552
2.226562	1.556525
2.227051	1.556722
2.227539	1.556209
2.228027	1.556418
2.228516	1.556286
2.229004	1.556445
2.229492	1.556412
2.229980	1.556404
2.230469	1.556517
2.230957	1.556433
2.231445	1.556428
2.231934	1.556646
2.232422	1.556497
2.232910	1.556333
2.233398	1.556383
2.233887	1.556428
2.234375	1.556508
2.234863	1.556402
2.235352	1.556324
2.235840	1.556261
2.236328	1.556408
2.236816	1.556461
2.237305	1.556422
2.237793	1.556409
2.238281	1.556448
2.238770	1.556782
2.239258	1.556209
2.239746	1.556345
2.240234	1.556391
2.240723	1.556205
2.241211	1.556419
2.241699	1.556300
2.242187	1.556631
2.242676	1.556400
2.243164	1.556245
2.243652	1.556145
2.244141	1.556017
2.244629	1.556317
2.245117	1.556151
2.245605	1.556352
2.246094	1.556334
2.246582	1.556273
2.247070	1.556280
2.247559	1.556171
2.248047	1.556188
2.248535	1.556270
2.249023	1.556301
2.249512	1.556192
2.250000	1.556425
2.250488	1.556334
2.250977	1.556474
2.251465	1.556394
2.251953	1.556192
2.252441	1.556387
2.252930	1.556419
2.253418	1.556378
2.253906	1.556082
2.254395	1.556302
2.254883	1.556475
2.255371	1.556276
2.255859	1.556085
2.256348	1.556262
2.256836	1.556301
2.257324	1.556356
2.257812	1.556109
2.258301	1.556322
2.258789	1.556414
2.259277	1.556239
2.259766	1.556284
2.260254	1.556430
2.260742	1.556187
2.261230	1.556420
2.261719	1.556067
2.262207	1.556212
2.262695	1.556298
2.263184	1.555993
2.263672	1.556115
2.264160	1.555917
2.264648	1.556139
2.265137	1.556160
2.265625	1.556172
2.266113	1.556227
2.266602	1.556209
2.267090	1.556303
2.267578	1.556138
2.268066	1.556283
2.268555	1.556273
2.269043	1.556248
2.269531	1.556093
2.270020	1.556264
2.270508	1.556524
2.270996	1.556372
2.271484	1.556441
2.271973	1.556309
2.272461	1.556502
2.272949	1.556121
2.273437	1.556246
2.273926	1.556378
2.274414	1.556063
2.274902	1.556147
2.275391	1.556053
2.275879	1.556515
2.276367	1.556308
2.276855	1.556220
2.277344	1.556304
2.277832	1.556243
2.278320	1.556192
2.278809	1.556249
2.279297	1.556180
2.279785	1.556070
2.280273	1.556420
2.280762	1.556439
2.281250	1.556215
2.281738	1.556306
2.282227	1.556220
2.282715	1.556192
2.283203	1.556399
2.283691	1.556028
2.284180	1.556380
2.284668	1.555952
2.285156	1.555871
2.285645	1.556113
2.286133	1.555844
2.286621	1.556168
2.287109	1.555996
2.287598	1.556177
2.288086	1.555996
2.288574	1.556151
2.289062	1.556020
2.289551	1.556107
2.290039	1.556087
2.290527	1.556196
2.291016	1.556147
2.291504	1.556083
2.291992	1.556272
2.292480	1.556055
2.292969	1.556257
2.293457	1.556179
2.293945	1.556011
2.294434	1.556044
2.294922	1.556256
2.295410	1.555999
2.295898	1.556134
2.296387	1.556061
2.296875	1.556294
2.297363	1.556060
2.297852	1.556241
2.298340	1.556040
2.298828	1.556043
2.299316	1.556272
2.299805	1.556201
2.300293	1.556240
2.300781	1.556201
2.301270	1.556245
2.301758	1.556326
2.302246	1.556313
2.302734	1.556211
2.303223	1.556188
2.303711	1.556056
2.304199	1.555955
2.304687	1.555991
2.305176	1.555787
2.305664	1.556124
2.306152	1.556195
2.306641	1.556122
2.307129	1.556184
2.307617	1.556078
2.308105	1.556101
2.308594	1.556196
2.309082	1.556352
2.309570	1.555879
2.310059	1.556061
2.310547	1.556410
2.311035	1.556272
2.311523	1.556275
2.312012	1.556211
2.312500	1.556358
2.312988	1.556259
2.313477	1.556224
2.313965	1.556105
2.314453	1.556249
2.314941	1.556192
2.315430	1.556192
2.315918	1.556243
2.316406	1.556406
2.316895	1.556069
2.317383	1.556340
2.317871	1.556129
2.318359	1.556434
2.318848	1.556563
2.319336	1.556227
2.319824	1.556361
2.320312	1.556436
2.320801	1.556545
2.321289	1.556206
2.321777	1.556184
2.322266	1.556425
2.322754	1.556547
2.323242	1.556270
2.323730	1.556476
2.324219	1.556204
2.324707	1.556457
2.325195	1.556614
2.325684	1.556418
2.326172	1.556744
2.326660	1.556360
2.327148	1.556441
2.327637	1.556450
2.328125	1.556301
2.328613	1.556500
2.329102	1.556294
2.329590	1.556644
2.330078	1.556661
2.330566	1.556441
2.331055	1.556582
2.331543	1.556485
2.332031	1.556769
2.332520	1.556599
2.333008	1.556583
2.333496	1.557056
2.333984	1.556390
2.334473	1.556570
2.334961	1.556679
2.335449	1.556480
2.335937	1.556544
2.336426	1.556540
2.336914	1.556775
2.337402	1.556701
2.337891	1.556547
2.338379	1.556610
2.338867	1.556584
2.339355	1.556370
2.339844	1.556634
2.340332	1.556475
2.340820	1.556583
2.341309	1.556714
2.341797	1.556790
2.342285	1.556366
2.342773	1.556541
2.343262	1.556289
2.343750	1.556350
2.344238	1.556752
2.344727	1.556477
2.345215	1.556697
2.345703	1.556508
2.346191	1.556618
2.346680	1.556279
2.347168	1.556556
2.347656	1.556486
2.348145	1.556500
2.348633	1.556283
2.349121	1.556486
2.349609	1.556222
2.350098	1.556381
2.350586	1.556390
2.351074	1.556311
2.351562	1.556346
2.352051	1.556520
2.352539	1.556286
2.353027	1.556355
2.353516	1.556581
2.354004	1.556503
2.354492	1.556794
2.354980	1.556660
2.355469	1.556670
2.355957	1.556392
2.356445	1.556632
2.356934	1.556557
2.357422	1.556674
2.357910	1.556585
2.358398	1.556586
2.358887	1.556508
2.359375	1.556492
2.359863	1.556303
2.360352	1.556766
2.360840	1.556394
2.361328	1.556534
2.361816	1.556635
2.362305	1.556429
2.362793	1.556574
2.363281	1.556433
2.363770	1.556394
2.364258	1.556427
2.364746	1.556493
2.365234	1.556724
2.365723	1.556607
2.366211	1.556541
2.366699	1.556545
2.367187	1.556744
2.367676	1.556445
2.368164	1.556734
2.368652	1.556616
2.369141	1.556467
2.369629	1.556522
2.370117	1.556486
2.370605	1.556568
2.371094	1.556617
2.371582	1.556513
2.372070	1.556796
2.372559	1.556506
2.373047	1.556522
2.373535	1.556395
2.374023	1.556632
2.374512	1.556438
2.375000	1.556805
2.375488	1.556772
2.375977	1.556727
2.376465	1.556778
2.376953	1.556954
2.377441	1.556708
2.377930	1.556730
2.378418	1.556680
2.378906	1.556887
2.379395	1.556704
2.379883	1.556766
2.380371	1.556782
2.380859	1.556598
2.381348	1.556603
2.381836	1.556663
2.382324	1.556711
2.382812	1.556543
2.383301	1.556642
2.383789	1.556466
2.384277	1.556787
2.384766	1.556585
2.385254	1.556611
2.385742	1.556629
2.386230	1.556678
2.386719	1.556765
2.387207	1.556807
2.387695	1.556481
2.388184	1.556601
2.388672	1.556644
2.389160	1.556467
2.389648	1.556563
2.390137	1.556366
2.390625	1.556496
2.391113	1.556472
2.391602	1.556510
2.392090	1.556438
2.392578	1.556734
2.393066	1.556640
2.393555	1.556602
2.394043	1.556495
2.394531	1.556382
2.395020	1.556486
2.395508	1.556379
2.395996	1.556248
2.396484	1.556347
2.396973	1.556505
2.397461	1.556350
2.397949	1.556380
2.398437	1.556489
2.398926	1.556365
2.399414	1.556240
2.399902	1.556590
2.400391	1.556495
2.400879	1.556693
2.401367	1.556396
2.401855	1.556519
2.402344	1.556436
2.402832	1.556533
2.403320	1.556450
2.403809	1.556329
2.404297	1.556470
2.404785	1.556304
2.405273	1.556538
2.405762	1.556364
2.406250	1.556478
2.406738	1.556297
2.407227	1.556510
2.407715	1.556486
2.408203	1.556405
2.408691	1.556224
2.409180	1.556407
2.409668	1.556275
2.410156	1.556075
2.410645	1.556470
2.411133	1.556017
2.411621	1.556350
2.412109	1.556222
2.412598	1.556381
2.413086	1.556579
2.413574	1.556240
2.414062	1.556204
2.414551	1.556149
2.415039	1.556345
2.415527	1.556204
2.416016	1.556196
2.416504	1.556120
2.416992	1.556289
2.417480	1.556225
2.417969	1.556297
2.418457	1.556248
2.418945	1.556329
2.419434	1.556335
2.419922	1.556348
2.420410	1.556329
2.420898	1.556333
2.421387	1.556428
2.421875	1.556431
2.422363	1.556320
2.422852	1.556468
2.423340	1.556384
2.423828	1.555890
2.424316	1.556306
2.424805	1.556366
2.425293	1.556331
2.425781	1.556334
2.426270	1.556168
2.426758	1.556180
2.427246	1.556258
2.427734	1.556142
2.428223	1.556342
2.428711	1.556121
2.429199	1.556244
2.429687	1.556221
2.430176	1.556181
2.430664	1.556192
2.431152	1.556397
2.431641	1.556400
2.432129	1.556422
2.432617	1.556189
2.433105	1.556474
2.433594	1.555980
2.434082	1.555909
2.434570	1.556195
2.435059	1.555991
2.435547	1.556179
2.436035	1.556001
2.436523	1.556360
2.437012	1.556174
2.437500	1.555929
2.437988	1.556128
2.438477	1.555718
2.438965	1.555901
2.439453	1.555927
2.439941	1.556123
2.440430	1.556240
2.440918	1.556021
2.441406	1.556071
2.441895	1.556240
2.442383	1.556256
2.442871	1.556090
2.443359	1.556210
2.443848	1.556118
2.444336	1.555957
2.444824	1.556211
2.445312	1.556110
2.445801	1.555831
2.446289	1.556196
2.446777	1.556130
2.447266	1.556256
2.447754	1.556045
2.448242	1.556120
2.448730	1.556391
2.449219	1.555961
2.449707	1.556083
2.450195	1.556178
2.450684	1.555972
2.451172	1.556106
2.451660	1.556128
2.452148	1.556185
2.452637	1.556212
2.453125	1.556319
2.453613	1.555952
2.454102	1.555954
2.454590	1.556004
2.455078	1.556040
2.455566	1.556016
2.456055	1.556007
2.456543	1.556027
2.457031	1.555875
2.457520	1.556209
2.458008	1.555932
2.458496	1.556066
2.458984	1.555981
2.459473	1.556274
2.459961	1.556126
2.460449	1.555912
2.460937	1.556298
2.461426	1.556257
2.461914	1.556128
2.462402	1.556289
2.462891	1.556099
2.463379	1.556178
2.463867	1.556175
2.464355	1.556040
2.464844	1.556217
2.465332	1.556027
2.465820	1.556125
2.466309	1.556080
2.466797	1.556287
2.467285	1.556220
2.467773	1.556181
2.468262	1.556045
2.468750	1.556378
2.469238	1.556093
2.469727	1.556129
2.470215	1.556314
2.470703	1.556258
2.471191	1.556378
2.471680	1.556161
2.472168	1.556560
2.472656	1.556148
2.473145	1.556102
2.473633	1.556087
2.474121	1.555981
2.474609	1.556211
2.475098	1.556112
2.475586	1.556153
2.476074	1.556042
2.476562	1.556101
2.477051	1.556106
2.477539	1.556273
2.478027	1.556175
2.478516	1.556276
2.479004	1.555999
2.479492	1.556204
2.479980	1.556049
2.480469	1.556378
2.480957	1.556422
2.481445	1.556259
2.481934	1.556300
2.482422	1.556486
2.482910	1.556016
2.483398	1.556412
2.483887	1.556083
2.484375	1.556113
2.484863	1.556173
2.485352	1.556311
2.485840	1.556422
2.486328	1.556196
2.486816	1.556417
2.487305	1.556256
2.487793	1.556245
2.488281	1.556141
2.488770	1.556331
2.489258	1.556342
2.489746	1.556169
2.490234	1.556516
2.490723	1.556497
2.491211	1.556310
2.491699	1.556303
2.492187	1.556284
2.492676	1.556361
2.493164	1.556142
2.493652	1.556154
2.494141	1.556253
2.494629	1.556229
2.495117	1.556131
2.495605	1.556113
2.496094	1.556141
2.496582	1.556153
2.497070	1.556036
2.497559	1.555887
2.498047	1.556065
2.498535	1.556081
2.499023	1.556096
2.499512	1.556143
2.500000	1.556141
2.500488	1.556175
2.500977	1.556164
2.501465	1.556278
2.501953	1.556126
2.502441	1.556188
2.502930	1.556250
2.503418	1.556012
2.503906	1.556345
2.504395	1.556205
2.504883	1.556156
2.505371	1.556078
2.505859	1.556015
2.506348	1.556312
2.506836	1.555961
2.507324	1.555998
2.507812	1.556062
2.508301	1.556065
2.508789	1.555973
2.509277	1.556250
2.509766	1.556171
2.510254	1.556047
2.510742	1.556373
2.511230	1.556232
2.511719	1.556258
2.512207	1.556224
2.512695	1.556286
2.513184	1.556149
2.513672	1.556257
2.514160	1.556158
2.514648	1.556194
2.515137	1.556306
2.515625	1.556344
2.516113	1.556143
2.516602	1.556333
2.517090	1.556605
2.517578	1.555951
2.518066	1.556146
2.518555	1.556239
2.519043	1.556264
2.519531	1.556101
2.520020	1.556258
2.520508	1.556097
2.520996	1.556297
2.521484	1.556010
2.521973	1.556215
2.522461	1.555988
2.522949	1.556193
2.523437	1.556369
2.523926	1.556149
2.524414	1.556231
2.524902	1.556098
2.525391	1.556265
2.525879	1.556340
2.526367	1.556336
2.526855	1.556107
2.527344	1.556380
2.527832	1.556050
2.528320	1.556248
2.528809	1.556046
2.529297	1.556178
2.529785	1.556293
2.530273	1.556180
2.530762	1.556262
2.531250	1.556196
2.531738	1.556168
2.532227	1.556157
2.532715	1.556116
2.533203	1.556276
2.533691	1.556046
2.534180	1.556203
2.534668	1.556337
2.535156	1.556229
2.535645	1.556029
2.536133	1.556048
2.536621	1.556106
2.537109	1.556015
2.537598	1.556111
2.538086	1.556133
2.538574	1.556064
2.539062	1.556330
2.539551	1.555946
2.540039	1.556216
2.540527	1.556142
2.541016	1.556173
2.541504	1.556295
2.541992	1.556200
2.542480	1.556283
2.542969	1.556210
2.543457	1.556195
2.543945	1.556057
2.544434	1.556120
2.544922	1.556398
2.545410	1.556376
2.545898	1.556353
2.546387	1.556288
2.546875	1.556152
2.547363	1.556175
2.547852	1.556073
2.548340	1.556175
2.548828	1.555952
2.549316	1.556184
2.549805	1.556043
2.550293	1.556175
2.550781	1.556134
2.551270	1.556161
2.551758	1.556275
2.552246	1.556060
2.552734	1.556171
2.553223	1.556016
2.553711	1.556090
2.554199	1.555792
2.554687	1.555949
2.555176	1.556234
2.555664	1.556109
2.556152	1.556330
2.556641	1.555948
2.557129	1.556024
2.557617	1.556030
2.558105	1.556185
2.558594	1.556073
2.559082	1.555986
2.559570	1.556073
2.560059	1.556027
2.560547	1.556365
2.561035	1.556140
2.561523	1.556213
2.562012	1.556297
2.562500	1.555981
2.562988	1.556040
2.563477	1.555937
2.563965	1.556120
2.564453	1.555700
2.564941	1.556075
2.565430	1.556073
2.565918	1.556064
2.566406	1.556217
2.566895	1.556158
2.567383	1.556105
2.567871	1.556099
2.568359	1.556143
2.568848	1.555985
2.569336	1.556049
2.569824	1.556106
2.570312	1.556264
2.570801	1.556009
2.571289	1.556254
2.571777	1.556029
2.572266	1.555990
2.572754	1.556398
2.573242	1.555870
2.573730	1.555909
2.574219	1.556036
2.574707	1.556092
2.575195	1.556049
2.575684	1.556010
2.576172	1.556319
2.576660	1.556114
2.577148	1.556097
2.577637	1.555953
2.578125	1.555904
2.578613	1.555925
2.579102	1.556041
2.579590	1.556143
2.580078	1.555876
2.580566	1.556329
2.581055	1.556149
2.581543	1.556093
2.582031	1.556203
2.582520	1.555965
2.583008	1.556045
2.583496	1.556096
2.583984	1.555994
2.584473	1.556020
2.584961	1.556148
2.585449	1.556184
2.585937	1.556078
2.586426	1.556172
2.586914	1.556181
2.587402	1.556331
2.587891	1.556182
2.588379	1.556186
2.588867	1.556232
2.589355	1.556195
2.589844	1.556098
2.590332	1.556344
2.590820	1.556447
2.591309	1.556180
2.591797	1.556417
2.592285	1.556391
2.592773	1.556149
2.593262	1.556399
2.593750	1.556312
2.594238	1.556379
2.594727	1.556415
2.595215	1.556502
2.595703	1.556139
2.596191	1.556456
2.596680	1.556435
2.597168	1.556459
2.597656	1.556219
2.598145	1.556461
2.598633	1.556340
2.599121	1.556328
2.599609	1.556363
2.600098	1.556257
2.600586	1.556398
2.601074	1.556408
2.601562	1.556439
2.602051	1.556215
2.602539	1.556383
2.603027	1.556442
2.603516	1.556508
2.604004	1.556194
2.604492	1.556412
2.604980	1.556185
2.605469	1.556255
2.605957	1.556567
2.606445	1.556255
2.606934	1.556486
2.607422	1.556417
2.607910	1.556277
2.608398	1.556528
2.608887	1.556218
2.609375	1.556423
2.609863	1.556107
2.610352	1.556344
2.610840	1.556495
2.611328	1.556253
2.611816	1.556293
2.612305	1.556257
2.612793	1.556209
2.613281	1.556336
2.613770	1.556005
2.614258	1.556187
2.614746	1.556109
2.615234	1.556143
2.615723	1.556311
2.616211	1.556240
2.616699	1.556155
2.617187	1.556233
2.617676	1.556290
2.618164	1.556196
2.618652	1.556095
2.619141	1.556083
2.619629	1.556255
2.620117	1.556264
2.620605	1.556175
2.621094	1.556085
2.621582	1.556417
2.622070	1.556577
2.622559	1.555997
2.623047	1.556124
2.623535	1.556312
2.624023	1.556260
2.624512	1.556362
2.625000	1.556366
2.625488	1.556268
2.625977	1.556328
2.626465	1.556334
2.626953	1.556266
2.627441	1.556137
2.627930	1.556355
2.628418	1.556328
2.628906	1.556212
2.629395	1.556270
2.629883	1.556277
2.630371	1.556289
2.630859	1.556701
2.631348	1.556514
2.631836	1.556206
2.632324	1.556494
2.632812	1.556546
2.633301	1.556624
2.633789	1.556455
2.634277	1.556448
2.634766	1.556467
2.635254	1.556436
2.635742	1.556466
2.636230	1.556682
2.636719	1.556457
2.637207	1.556581
2.637695	1.556621
2.638184	1.556565
2.638672	1.556761
2.639160	1.556563
2.639648	1.556519
2.640137	1.556687
2.640625	1.556984
2.641113	1.556715
2.641602	1.557009
2.642090	1.556972
2.642578	1.556704
2.643066	1.556895
2.643555	1.556621
2.644043	1.556872
2.644531	1.556734
2.645020	1.556883
2.645508	1.557197
2.645996	1.556830
2.646484	1.556821
2.646973	1.556938
2.647461	1.557086
2.647949	1.556877
2.648437	1.556674
2.648926	1.556995
2.649414	1.556836
2.649902	1.556819
2.650391	1.557033
2.650879	1.557181
2.651367	1.556950
2.651855	1.556904
2.652344	1.556964
2.652832	1.556918
2.653320	1.556842
2.653809	1.556888
2.654297	1.556880
2.654785	1.556888
2.655273	1.556995
2.655762	1.556852
2.656250	1.556699
2.656738	1.556735
2.657227	1.556530
2.657715	1.556782
2.658203	1.556696
2.658691	1.556829
2.659180	1.556723
2.659668	1.556616
2.660156	1.556847
2.660645	1.556727
2.661133	1.556701
2.661621	1.556860
2.662109	1.556972
2.662598	1.556697
2.663086	1.556633
2.663574	1.556495
2.664062	1.556764
2.664551	1.556704
2.665039	1.556566
2.665527	1.556473
2.666016	1.556663
2.666504	1.556487
2.666992	1.556588
2.667480	1.556561
2.667969	1.556465
2.668457	1.556436
2.668945	1.556477
2.669434	1.556483
2.669922	1.556400
2.670410	1.556349
2.670898	1.556582
2.671387	1.556563
2.671875	1.556559
2.672363	1.556554
2.672852	1.556705
2.673340	1.556565
2.673828	1.556311
2.674316	1.556572
2.674805	1.556656
2.675293	1.556721
2.675781	1.556561
2.676270	1.556543
2.676758	1.556675
2.677246	1.556298
2.677734	1.556577
2.678223	1.556370
2.678711	1.556379
2.679199	1.556619
2.679687	1.556398
2.680176	1.556961
2.680664	1.556477
2.681152	1.556452
2.681641	1.556617
2.682129	1.556366
2.682617	1.556366
2.683105	1.556482
2.683594	1.556538
2.684082	1.556402
2.684570	1.556448
2.685059	1.556379
2.685547	1.556345
2.686035	1.556447
2.686523	1.556519
2.687012	1.556429
2.687500	1.556530
2.687988	1.556340
2.688477	1.556469
2.688965	1.556231
2.689453	1.556276
2.689941	1.556397
2.690430	1.556472
2.690918	1.556514
2.691406	1.556445
2.691895	1.556442
2.692383	1.556755
2.692871	1.556724
2.693359	1.556541
2.693848	1.556313
2.694336	1.556499
2.694824	1.556537
2.695312	1.556429
2.695801	1.556396
2.696289	1.556459
2.696777	1.556425
2.697266	1.556538
2.697754	1.556572
2.698242	1.556361
2.698730	1.556218
2.699219	1.556138
2.699707	1.556322
2.700195	1.556159
2.700684	1.556459
2.701172	1.556408
2.701660	1.556305
2.702148	1.556334
2.702637	1.556265
2.703125	1.556193
2.703613	1.556289
2.704102	1.556207
2.704590	1.556176
2.705078	1.555991
2.705566	1.556221
2.706055	1.556263
2.706543	1.556144
2.707031	1.556176
2.707520	1.556257
2.708008	1.556030
2.708496	1.556075
2.708984	1.555957
2.709473	1.556161
2.709961	1.556028
2.710449	1.556092
2.710937	1.556328
2.711426	1.556154
2.711914	1.556175
2.712402	1.556096
2.712891	1.555978
2.713379	1.556054
2.713867	1.555899
2.714355	1.556173
2.714844	1.556393
2.715332	1.556007
2.715820	1.556330
2.716309	1.556013
2.716797	1.556018
2.717285	1.556026
2.717773	1.555886
2.718262	1.556162
2.718750	1.556295
2.719238	1.555998
2.719727	1.556048
2.720215	1.556257
2.720703	1.556257
2.721191	1.556592
2.721680	1.556156
2.722168	1.556115
2.722656	1.556397
2.723145	1.556323
2.723633	1.556172
2.724121	1.556012
2.724609	1.556386
2.725098	1.556564
2.725586	1.556030
2.726074	1.556175
2.726562	1.556211
2.727051	1.556115
2.727539	1.556085
2.728027	1.556066
2.728516	1.556397
2.729004	1.556034
2.729492	1.556066
2.729980	1.556057
2.730469	1.556012
2.730957	1.556051
2.731445	1.555998
2.731934	1.556071
2.732422	1.555998
2.732910	1.556324
2.733398	1.556211
2.733887	1.556093
2.734375	1.555893
2.734863	1.556160
2.735352	1.556025
2.735840	1.555976
2.736328	1.556030
2.736816	1.555955
2.737305	1.556409
2.737793	1.556129
2.738281	1.556264
2.738770	1.556346
2.739258	1.556018
2.739746	1.556463
2.740234	1.556029
2.740723	1.556139
2.741211	1.555999
2.741699	1.556354
2.742187	1.555993
2.742676	1.556466
2.743164	1.556295
2.743652	1.556307
2.744141	1.556405
2.744629	1.556277
2.745117	1.556313
2.745605	1.556542
2.746094	1.556622
2.746582	1.556542
2.747070	1.556395
2.747559	1.556292
2.748047	1.556299
2.748535	1.556312
2.749023	1.556272
2.749512	1.556427
2.750000	1.556395
2.750488	1.556286
2.750977	1.556526
2.751465	1.556289
2.751953	1.556474
2.752441	1.556360
2.752930	1.556212
2.753418	1.556344
2.753906	1.556487
2.754395	1.556451
2.754883	1.556433
2.755371	1.556329
2.755859	1.556551
2.756348	1.556238
2.756836	1.556300
2.757324	1.556427
2.757812	1.556479
2.758301	1.556518
2.758789	1.556536
2.759277	1.556503
2.759766	1.556551
2.760254	1.556529
2.760742	1.556721
2.761230	1.556491
2.761719	1.556370
2.762207	1.556486
2.762695	1.556402
2.763184	1.556436
2.763672	1.556428
2.764160	1.556290
2.764648	1.556441
2.765137	1.556450
2.765625	1.556455
2.766113	1.556516
2.766602	1.556294
2.767090	1.556430
2.767578	1.556472
2.768066	1.556592
2.768555	1.556465
2.769043	1.556659
2.769531	1.556566
2.770020	1.556609
2.770508	1.556730
2.770996	1.556551
2.771484	1.556387
2.771973	1.556442
2.772461	1.556428
2.772949	1.556465
2.773437	1.556433
2.773926	1.556075
2.774414	1.556325
2.774902	1.556449
2.775391	1.556500
2.775879	1.556410
2.776367	1.556478
2.776855	1.556469
2.777344	1.556438
2.777832	1.556691
2.778320	1.556458
2.778809	1.556427
2.779297	1.556606
2.779785	1.556501
2.780273	1.556566
2.780762	1.556569
2.781250	1.556338
2.781738	1.556495
2.782227	1.556445
2.782715	1.556672
2.783203	1.556594
2.783691	1.556426
2.784180	1.556513
2.784668	1.556284
2.785156	1.556444
2.785645	1.556387
2.786133	1.556326
2.786621	1.556326
2.787109	1.556486
2.787598	1.556291
2.788086	1.556488
2.788574	1.556536
2.789062	1.556617
2.789551	1.556548
2.790039	1.556491
2.790527	1.556433
2.791016	1.556724
2.791504	1.556486
2.791992	1.556542
2.792480	1.556636
2.792969	1.556527
2.793457	1.556451
2.793945	1.556228
2.794434	1.556325
2.794922	1.556131
2.795410	1.556290
2.795898	1.556405
2.796387	1.556423
2.796875	1.556226
2.797363	1.556259
2.797852	1.556454
2.798340	1.556156
2.798828	1.556286
2.799316	1.556319
2.799805	1.556289
2.800293	1.556427
2.800781	1.556594
2.801270	1.556361
2.801758	1.556491
2.802246	1.556372
2.802734	1.556481
2.803223	1.556481
2.803711	1.556444
2.804199	1.556317
2.804687	1.556327
2.805176	1.556286
2.805664	1.556412
2.806152	1.556366
2.806641	1.556466
2.807129	1.556319
2.807617	1.556600
2.808105	1.556386
2.808594	1.556329
2.809082	1.556198
2.809570	1.556221
2.810059	1.556190
2.810547	1.556229
2.811035	1.556292
2.811523	1.556237
2.812012	1.556386
2.812500	1.556168
2.812988	1.556312
2.813477	1.556291
2.813965	1.556176
2.814453	1.556154
2.814941	1.556132
2.815430	1.556144
2.815918	1.556323
2.816406	1.556175
2.816895	1.556217
2.817383	1.556146
2.817871	1.556140
2.818359	1.556330
2.818848	1.556109
2.819336	1.556203
2.819824	1.556322
2.820312	1.555946
2.820801	1.556143
2.821289	1.556114
2.821777	1.556152
2.822266	1.556124
2.822754	1.556154
2.823242	1.556055
2.823730	1.556185
2.824219	1.556203
2.824707	1.555976
2.825195	1.555976
2.825684	1.556064
2.826172	1.556049
2.826660	1.556043
2.827148	1.556016
2.827637	1.555982
2.828125	1.555897
2.828613	1.555882
2.829102	1.556021
2.829590	1.555724
2.830078	1.556022
2.830566	1.555786
2.831055	1.556013
2.831543	1.555865
2.832031	1.555853
2.832520	1.556002
2.833008	1.555973
2.833496	1.555911
2.833984	1.555569
2.834473	1.555819
2.834961	1.556005
2.835449	1.555788
2.835937	1.555924
2.836426	1.555777
2.836914	1.555960
2.837402	1.555752
2.837891	1.555739
2.838379	1.556040
2.838867	1.555771
2.839355	1.555868
2.839844	1.555990
2.840332	1.555801
2.840820	1.556080
2.841309	1.555784
2.841797	1.555996
2.842285	1.555813
2.842773	1.555891
2.843262	1.556041
2.843750	1.555979
2.844238	1.555950
2.844727	1.556068
2.845215	1.556073
2.845703	1.555876
2.846191	1.556101
2.846680	1.556219
2.847168	1.556182
2.847656	1.556088
2.848145	1.556173
2.848633	1.555914
2.849121	1.556128
2.849609	1.556004
2.850098	1.556181
2.850586	1.556014
2.851074	1.556162
2.851562	1.555988
2.852051	1.556267
2.852539	1.556295
2.853027	1.556260
2.853516	1.556245
2.854004	1.555924
2.854492	1.555975
2.854980	1.556430
2.855469	1.556221
2.855957	1.556200
2.856445	1.556209
2.856934	1.556444
2.857422	1.556346
2.857910	1.555997
2.858398	1.556301
2.858887	1.556032
2.859375	1.556106
2.859863	1.556310
2.860352	1.556366
2.860840	1.556422
2.861328	1.556166
2.861816	1.556357
2.862305	1.556120
2.862793	1.556176
2.863281	1.556394
2.863770	1.556355
2.864258	1.556455
2.864746	1.556534
2.865234	1.556477
2.865723	1.556724
2.866211	1.556594
2.866699	1.556417
2.867187	1.556582
2.867676	1.556613
2.868164	1.556519
2.868652	1.556450
2.869141	1.556414
2.869629	1.556565
2.870117	1.556511
2.870605	1.556562
2.871094	1.556638
2.871582	1.556499
2.872070	1.556629
2.872559	1.556786
2.873047	1.556392
2.873535	1.556308
2.874023	1.556482
2.874512	1.556320
2.875000	1.556538
2.875488	1.556459
2.875977	1.556414
2.876465	1.556495
2.876953	1.556521
2.877441	1.556384
2.877930	1.556517
2.878418	1.556502
2.878906	1.556474
2.879395	1.556453
2.879883	1.556549
2.880371	1.556591
2.880859	1.556714
2.881348	1.556414
2.881836	1.556506
2.882324	1.556448
2.882812	1.556316
2.883301	1.556744
2.883789	1.556462
2.884277	1.556716
2.884766	1.556713
2.885254	1.556641
2.885742	1.556517
2.886230	1.556673
2.886719	1.556659
2.887207	1.556535
2.887695	1.556472
2.888184	1.556615
2.888672	1.556534
2.889160	1.556502
2.889648	1.556779
2.890137	1.556530
2.890625	1.556738
2.891113	1.556711
2.891602	1.556701
2.892090	1.556574
2.892578	1.556750
2.893066	1.556805
2.893555	1.557017
2.894043	1.556588
2.894531	1.556787
2.895020	1.556804
2.895508	1.556843
2.895996	1.556475
2.896484	1.556318
2.896973	1.556716
2.897461	1.556674
2.897949	1.556535
2.898437	1.556597
2.898926	1.556632
2.899414	1.556504
2.899902	1.556848
2.900391	1.556700
2.900879	1.556697
2.901367	1.556434
2.901855	1.556715
2.902344	1.556431
2.902832	1.556627
2.903320	1.556531
2.903809	1.556375
2.904297	1.556535
2.904785	1.556484
2.905273	1.556558
2.905762	1.556581
2.906250	1.556588
2.906738	1.556621
2.907227	1.556673
2.907715	1.556493
2.908203	1.556583
2.908691	1.556615
2.909180	1.556601
2.909668	1.556361
2.910156	1.556519
2.910645	1.556453
2.911133	1.556353
2.911621	1.556596
2.912109	1.556678
2.912598	1.556545
2.913086	1.556477
2.913574	1.556907
2.914062	1.556563
2.914551	1.556495
2.915039	1.556473
2.915527	1.556297
2.916016	1.556487
2.916504	1.556553
2.916992	1.556458
2.917480	1.556366
2.917969	1.556474
2.918457	1.556596
2.918945	1.556728
2.919434	1.556430
2.919922	1.556542
2.920410	1.556632
2.920898	1.556578
2.921387	1.556323
2.921875	1.556457
2.922363	1.556297
2.922852	1.556403
2.923340	1.556502
2.923828	1.556365
2.924316	1.556332
2.924805	1.556439
2.925293	1.556762
2.925781	1.556452
2.926270	1.556400
2.926758	1.556506
2.927246	1.556496
2.927734	1.556354
2.928223	1.556169
2.928711	1.556414
2.929199	1.556400
2.929687	1.556432
2.930176	1.556468
2.930664	1.556666
2.931152	1.556403
2.931641	1.556314
2.932129	1.556445
2.932617	1.556408
2.933105	1.556506
2.933594	1.556340
2.934082	1.556481
2.934570	1.556327
2.935059	1.556605
2.935547	1.556408
2.936035	1.556484
2.936523	1.556429
2.937012	1.556633
2.937500	1.556582
2.937988	1.556743
2.938477	1.556557
2.938965	1.556431
2.939453	1.556430
2.939941	1.556678
2.940430	1.556519
2.940918	1.556245
2.941406	1.556564
2.941895	1.556153
2.942383	1.556586
2.942871	1.556441
2.943359	1.556859
2.943848	1.556762
2.944336	1.556386
2.944824	1.556504
2.945312	1.556368
2.945801	1.556590
2.946289	1.556524
2.946777	1.556584
2.947266	1.556728
2.947754	1.556427
2.948242	1.556624
2.948730	1.556511
2.949219	1.556625
2.949707	1.556443
2.950195	1.556410
2.950684	1.556812
2.951172	1.556694
2.951660	1.556704
2.952148	1.556652
2.952637	1.556645
2.953125	1.556381
2.953613	1.556314
2.954102	1.556480
2.954590	1.556696
2.955078	1.556513
2.955566	1.556555
2.956055	1.556425
2.956543	1.556360
2.957031	1.556569
2.957520	1.556422
2.958008	1.556582
2.958496	1.556516
2.958984	1.556747
2.959473	1.556466
2.959961	1.556245
2.960449	1.556524
2.960937	1.556340
2.961426	1.556320
2.961914	1.556442
2.962402	1.556525
2.962891	1.556267
2.963379	1.556503
2.963867	1.556358
2.964355	1.556345
2.964844	1.556215
2.965332	1.556514
2.965820	1.556426
2.966309	1.556677
2.966797	1.556500
2.967285	1.556346
2.967773	1.556256
2.968262	1.556380
2.968750	1.556540
2.969238	1.556396
2.969727	1.556499
2.970215	1.556566
2.970703	1.556586
2.971191	1.556520
2.971680	1.556730
2.972168	1.556673
2.972656	1.556596
2.973145	1.556632
2.973633	1.556607
2.974121	1.556530
2.974609	1.556538
2.975098	1.556405
2.975586	1.556463
2.976074	1.556460
2.976562	1.556503
2.977051	1.556766
2.977539	1.556499
2.978027	1.556849
2.978516	1.556721
2.979004	1.556585
2.979492	1.556686
2.979980	1.556937
2.980469	1.556888
2.980957	1.556414
2.981445	1.556687
2.981934	1.556754
2.982422	1.556700
2.982910	1.556460
2.983398	1.556571
2.983887	1.556543
2.984375	1.556701
2.984863	1.556756
2.985352	1.556527
2.985840	1.556514
2.986328	1.556370
2.986816	1.556685
2.987305	1.556467
2.987793	1.556582
2.988281	1.556319
2.988770	1.556550
2.989258	1.556432
2.989746	1.556512
2.990234	1.556632
2.990723	1.556779
2.991211	1.556627
2.991699	1.556697
2.992187	1.556655
2.992676	1.556591
2.993164	1.556500
2.993652	1.556350
2.994141	1.556741
2.994629	1.556571
2.995117	1.556475
2.995605	1.556735
2.996094	1.556525
2.996582	1.556549
2.997070	1.556382
2.997559	1.556486
2.998047	1.556603
2.998535	1.556290
2.999023	1.556503
2.999512	1.556454
3.000000	1.556369
3.000488	1.556630
3.000977	1.556498
3.001465	1.556578
3.001953	1.556523
3.002441	1.556434
3.002930	1.556701
3.003418	1.556470
3.003906	1.556478
3.004395	1.556449
3.004883	1.556438
3.005371	1.556626
3.005859	1.556448
3.006348	1.556589
3.006836	1.556593
3.007324	1.556089
3.007812	1.556562
3.008301	1.556300
3.008789	1.556389
3.009277	1.556193
3.009766	1.556336
3.010254	1.556462
3.010742	1.556382
3.011230	1.556232
3.011719	1.556423
3.012207	1.556362
3.012695	1.556419
3.013184	1.556575
3.013672	1.556474
3.014160	1.556438
3.014648	1.556760
3.015137	1.556552
3.015625	1.556450
3.016113	1.556584
3.016602	1.556355
3.017090	1.556593
3.017578	1.556707
3.018066	1.556690
3.018555	1.556838
3.019043	1.556578
3.019531	1.556761
3.020020	1.556614
3.020508	1.556711
3.020996	1.556729
3.021484	1.556753
3.021973	1.556755
3.022461	1.556814
3.022949	1.556837
3.023437	1.556702
3.023926	1.556623
3.024414	1.556569
3.024902	1.556633
3.025391	1.556890
3.025879	1.556606
3.026367	1.556644
3.026855	1.556763
3.027344	1.556486
3.027832	1.556523
3.028320	1.556696
3.028809	1.556612
3.029297	1.556567
3.029785	1.556616
3.030273	1.556893
3.030762	1.556509
3.031250	1.556499
3.031738	1.556710
3.032227	1.556382
3.032715	1.556582
3.033203	1.556613
3.033691	1.556460
3.034180	1.556466
3.034668	1.556395
3.035156	1.556448
3.035645	1.556497
3.036133	1.556465
3.036621	1.556755
3.037109	1.556499
3.037598	1.556620
3.038086	1.556350
3.038574	1.556684
3.039062	1.556568
3.039551	1.556516
3.040039	1.556518
3.040527	1.556716
3.041016	1.556520
3.041504	1.556539
3.041992	1.556715
3.042480	1.556636
3.042969	1.556645
3.043457	1.556470
3.043945	1.556772
3.044434	1.556366
3.044922	1.556341
3.045410	1.556473
3.045898	1.556215
3.046387	1.556621
3.046875	1.556369
3.047363	1.556730
3.047852	1.556523
3.048340	1.556494
3.048828	1.556459
3.049316	1.556375
3.049805	1.556560
3.050293	1.556494
3.050781	1.556530
3.051270	1.556577
3.051758	1.556397
3.052246	1.556402
3.052734	1.556383
3.053223	1.556356
3.053711	1.556473
3.054199	1.556495
3.054687	1.556085
3.055176	1.556377
3.055664	1.556157
3.056152	1.556234
3.056641	1.556536
3.057129	1.556365
3.057617	1.556495
3.058105	1.556430
3.058594	1.556479
3.059082	1.556448
3.059570	1.556491
3.060059	1.556464
3.060547	1.556638
3.061035	1.556393
3.061523	1.556636
3.062012	1.556473
3.062500	1.556641
3.062988	1.556489
3.063477	1.556451
3.063965	1.556340
3.064453	1.556720
3.064941	1.556529
3.065430	1.556589
3.065918	1.556607
3.066406	1.556683
3.066895	1.556753
3.067383	1.556716
3.067871	1.556893
3.068359	1.556412
3.068848	1.556633
3.069336	1.556742
3.069824	1.556665
3.070312	1.556783
3.070801	1.556628
3.071289	1.557007
3.071777	1.556802
3.072266	1.556658
3.072754	1.556822
3.073242	1.556630
3.073730	1.556643
3.074219	1.556704
3.074707	1.556884
3.075195	1.556622
3.075684	1.557061
3.076172	1.556906
3.076660	1.556651
3.077148	1.556745
3.077637	1.557163
3.078125	1.557039
3.078613	1.557007
3.079102	1.556737
3.079590	1.557174
3.080078	1.556721
3.080566	1.556863
3.081055	1.556928
3.081543	1.556589
3.082031	1.556783
3.082520	1.556633
3.083008	1.557138
3.083496	1.556967
3.083984	1.556727
3.084473	1.556906
3.084961	1.556909
3.085449	1.556917
3.085937	1.556840
3.086426	1.557013
3.086914	1.556848
3.087402	1.556897
3.087891	1.557038
3.088379	1.557180
3.088867	1.556903
3.089355	1.556930
3.089844	1.556989
3.090332	1.556810
3.090820	1.556806
3.091309	1.556832
3.091797	1.556851
3.092285	1.556829
3.092773	1.556708
3.093262	1.556724
3.093750	1.556752
3.094238	1.556384
3.094727	1.556931
3.095215	1.556628
3.095703	1.556777
3.096191	1.556782
3.096680	1.556843
3.097168	1.556681
3.097656	1.556815
3.098145	1.556774
3.098633	1.556557
3.099121	1.556580
3.099609	1.556735
3.100098	1.556735
3.100586	1.556716
3.101074	1.556431
3.101562	1.556596
3.102051	1.556422
3.102539	1.556368
3.103027	1.556480
3.103516	1.556564
3.104004	1.556380
3.104492	1.556412
3.104980	1.557053
3.105469	1.556561
3.105957	1.556845
3.106445	1.556642
3.106934	1.556728
3.107422	1.556491
3.107910	1.556786
3.108398	1.556516
3.108887	1.556607
3.109375	1.556409
3.109863	1.556555
3.110352	1.556508
3.110840	1.556769
3.111328	1.556470
3.111816	1.556500
3.112305	1.556755
3.112793	1.556614
3.113281	1.556584
3.113770	1.556452
3.114258	1.556543
3.114746	1.556530
3.115234	1.556841
3.115723	1.556551
3.116211	1.556614
3.116699	1.556417
3.117187	1.556688
3.117676	1.556620
3.118164	1.556579
3.118652	1.556797
3.119141	1.556589
3.119629	1.556536
3.120117	1.556558
3.120605	1.556547
3.121094	1.556638
3.121582	1.556415
3.122070	1.556600
3.122559	1.556612
3.123047	1.556371
3.123535	1.556505
3.124023	1.556440
3.124512	1.556558
3.125000	1.556580
3.125488	1.556511
3.125977	1.556715
3.126465	1.556543
3.126953	1.556652
3.127441	1.556510
3.127930	1.556617
3.128418	1.556558
3.128906	1.556810
3.129395	1.556428
3.129883	1.556425
3.130371	1.556506
3.130859	1.556630
3.131348	1.556488
3.131836	1.556445
3.132324	1.556600
3.132812	1.556493
3.133301	1.556502
3.133789	1.556331
3.134277	1.556237
3.134766	1.556594
3.135254	1.556033
3.135742	1.556343
3.136230	1.556288
3.136719	1.556394
3.137207	1.556240
3.137695	1.556203
3.138184	1.556377
3.138672	1.556375
3.139160	1.556102
3.139648	1.556536
3.140137	1.556345
3.140625	1.556453
3.141113	1.556375
3.141602	1.556311
3.142090	1.556478
3.142578	1.556293
3.143066	1.556450
3.143555	1.556495
3.144043	1.556128
3.144531	1.556371
3.145020	1.556529
3.145508	1.556372
3.145996	1.556539
3.146484	1.556254
3.146973	1.556579
3.147461	1.556435
3.147949	1.556404
3.148437	1.556235
3.148926	1.556343
3.149414	1.556362
3.149902	1.556528
3.150391	1.556205
3.150879	1.556334
3.151367	1.556082
3.151855	1.556313
3.152344	1.556378
3.152832	1.556219
3.153320	1.556266
3.153809	1.556361
3.154297	1.556333
3.154785	1.556484
3.155273	1.556474
3.155762	1.556253
3.156250	1.556696
3.156738	1.556408
3.157227	1.556639
3.157715	1.556289
3.158203	1.556592
3.158691	1.556514
3.159180	1.556622
3.159668	1.556416
3.160156	1.556466
3.160645	1.556351
3.161133	1.556447
3.161621	1.556527
3.162109	1.556512
3.162598	1.556452
3.163086	1.556461
3.163574	1.556471
3.164062	1.556148
3.164551	1.556216
3.165039	1.556460
3.165527	1.556204
3.166016	1.556547
3.166504	1.556550
3.166992	1.556367
3.167480	1.556522
3.167969	1.556643
3.168457	1.556619
3.168945	1.556379
3.169434	1.556378
3.169922	1.556453
3.170410	1.556616
3.170898	1.556509
3.171387	1.556518
3.171875	1.556591
3.172363	1.556410
3.172852	1.556696
3.173340	1.556631
3.173828	1.556486
3.174316	1.556601
3.174805	1.556516
3.175293	1.556333
3.175781	1.556425
3.176270	1.556433
3.176758	1.556422
3.177246	1.556503
3.177734	1.556596
3.178223	1.556575
3.178711	1.556511
3.179199	1.556590
3.179687	1.556536
3.180176	1.556380
3.180664	1.556711
3.181152	1.556650
3.181641	1.556651
3.182129	1.556423
3.182617	1.557029
3.183105	1.556791
3.183594	1.556238
3.184082	1.556653
3.184570	1.556556
3.185059	1.556763
3.185547	1.556649
3.186035	1.556794
3.186523	1.556600
3.187012	1.556884
3.187500	1.556729
3.187988	1.556747
3.188477	1.556710
3.188965	1.556777
3.189453	1.556767
3.189941	1.556684
3.190430	1.556805
3.190918	1.556701
3.191406	1.557002
3.191895	1.556990
3.192383	1.556774
3.192871	1.557111
3.193359	1.556506
3.193848	1.556666
3.194336	1.556598
3.194824	1.556510
3.195312	1.556486
3.195801	1.556629
3.196289	1.556871
3.196777	1.556707
3.197266	1.556868
3.197754	1.556688
3.198242	1.556735
3.198730	1.556766
3.199219	1.556757
3.199707	1.556804
3.200195	1.556733
3.200684	1.556931
3.201172	1.556813
3.201660	1.556856
3.202148	1.556965
3.202637	1.556773
3.203125	1.556824
3.203613	1.556877
3.204102	1.556981
3.204590	1.556722
3.205078	1.556837
3.205566	1.556962
3.206055	1.556738
3.206543	1.556530
3.207031	1.556553
3.207520	1.556770
3.208008	1.556588
3.208496	1.556635
3.208984	1.556908
3.209473	1.556727
3.209961	1.556823
3.210449	1.556837
3.210937	1.556685
3.211426	1.556816
3.211914	1.556846
3.212402	1.556724
3.212891	1.556847
3.213379	1.556567
3.213867	1.556782
3.214355	1.556474
3.214844	1.556690
3.215332	1.556612
3.215820	1.556655
3.216309	1.556459
3.216797	1.556469
3.217285	1.556414
3.217773	1.556462
3.218262	1.556441
3.218750	1.556453
3.219238	1.556475
3.219727	1.556727
3.220215	1.556644
3.220703	1.556745
3.221191	1.556663
3.221680	1.556429
3.222168	1.556618
3.222656	1.556562
3.223145	1.556599
3.223633	1.556625
3.224121	1.556437
3.224609	1.556596
3.225098	1.556420
3.225586	1.556276
3.226074	1.556526
3.226562	1.556116
3.227051	1.556528
3.227539	1.556541
3.228027	1.556326
3.228516	1.556364
3.229004	1.556328
3.229492	1.556279
3.229980	1.556470
3.230469	1.556369
3.230957	1.556320
3.231445	1.556326
3.231934	1.556342
3.232422	1.556387
3.232910	1.556277
3.233398	1.556408
3.233887	1.556361
3.234375	1.556361
3.234863	1.556272
3.235352	1.556303
3.235840	1.556235
3.236328	1.556243
3.236816	1.556406
3.237305	1.556153
3.237793	1.556387
3.238281	1.556068
3.238770	1.556103
3.239258	1.556272
3.239746	1.556157
3.240234	1.556066
3.240723	1.556384
3.241211	1.556073
3.241699	1.556053
3.242187	1.556095
3.242676	1.556229
3.243164	1.556055
3.243652	1.556172
3.244141	1.555976
3.244629	1.556037
3.245117	1.555913
3.245605	1.555896
3.246094	1.555819
3.246582	1.555540
3.247070	1.556128
3.247559	1.555908
3.248047	1.555824
3.248535	1.555944
3.249023	1.556069
3.249512	1.555858
3.250000	1.555893
3.250488	1.556121
3.250977	1.555797
3.251465	1.555837
3.251953	1.555868
3.252441	1.555944
3.252930	1.555745
3.253418	1.555797
3.253906	1.555512
3.254395	1.555969
3.254883	1.555984
3.255371	1.555838
3.255859	1.555884
3.256348	1.555539
3.256836	1.555760
3.257324	1.555648
3.257812	1.555697
3.258301	1.555724
3.258789	1.555898
3.259277	1.555900
3.259766	1.555757
3.260254	1.556024
3.260742	1.556037
3.261230	1.555875
3.261719	1.555882
3.262207	1.556107
3.262695	1.555598
3.263184	1.555777
3.263672	1.555668
3.264160	1.555763
3.264648	1.555865
3.265137	1.555778
3.265625	1.555952
3.266113	1.555948
3.266602	1.556118
3.267090	1.555780
3.267578	1.555899
3.268066	1.556043
3.268555	1.555985
3.269043	1.555954
3.269531	1.556065
3.270020	1.556131
3.270508	1.556198
3.270996	1.556273
3.271484	1.556145
3.271973	1.556264
3.272461	1.556107
3.272949	1.556167
3.273437	1.556151
3.273926	1.556053
3.274414	1.555952
3.274902	1.556112
3.275391	1.556029
3.275879	1.556024
3.276367	1.556097
3.276855	1.556066
3.277344	1.556315
3.277832	1.556264
3.278320	1.556351
3.278809	1.556359
3.279297	1.556613
3.279785	1.556291
3.280273	1.556501
3.280762	1.556530
3.281250	1.556364
3.281738	1.556463
3.282227	1.556476
3.282715	1.556372
3.283203	1.556412
3.283691	1.556267
3.284180	1.556328
3.284668	1.556230
3.285156	1.556299
3.285645	1.556570
3.286133	1.556347
3.286621	1.556591
3.287109	1.556307
3.287598	1.556471
3.288086	1.556547
3.288574	1.556173
3.289062	1.556524
3.289551	1.556482
3.290039	1.556619
3.290527	1.556463
3.291016	1.556869
3.291504	1.556348
3.291992	1.556954
3.292480	1.556647
3.292969	1.556575
3.293457	1.556470
3.293945	1.556357
3.294434	1.556578
3.294922	1.556450
3.295410	1.556574
3.295898	1.556764
3.296387	1.556535
3.296875	1.556680
3.297363	1.556527
3.297852	1.556719
3.298340	1.556314
3.298828	1.556403
3.299316	1.556554
3.299805	1.556605
3.300293	1.556588
3.300781	1.556710
3.301270	1.556570
3.301758	1.556431
3.302246	1.556663
3.302734	1.556661
3.303223	1.556594
3.303711	1.556452
3.304199	1.556497
3.304687	1.556273
3.305176	1.556620
3.305664	1.556294
3.306152	1.556579
3.306641	1.556547
3.307129	1.556548
3.307617	1.556638
3.308105	1.556487
3.308594	1.556639
3.309082	1.556513
3.309570	1.556560
3.310059	1.556553
3.310547	1.556616
3.311035	1.556445
3.311523	1.556474
3.312012	1.556564
3.312500	1.556520
3.312988	1.556287
3.313477	1.556558
3.313965	1.556192
3.314453	1.556446
3.314941	1.556194
3.315430	1.556474
3.315918	1.556171
3.316406	1.556754
3.316895	1.556568
3.317383	1.556577
3.317871	1.556614
3.318359	1.556525
3.318848	1.556533
3.319336	1.556270
3.319824	1.556502
3.320312	1.556420
3.320801	1.556475
3.321289	1.556477
3.321777	1.556286
3.322266	1.556495
3.322754	1.556143
3.323242	1.556193
3.323730	1.556165
3.324219	1.555794
3.324707	1.556192
3.325195	1.556240
3.325684	1.556192
3.326172	1.556014
3.326660	1.556394
3.327148	1.556029
3.327637	1.556272
3.328125	1.556157
3.328613	1.556068
3.329102	1.556115
3.329590	1.556070
3.330078	1.556186
3.330566	1.556102
3.331055	1.555971
3.331543	1.555987
3.332031	1.556221
3.332520	1.555941
3.333008	1.556088
3.333496	1.555827
3.333984	1.556162
3.334473	1.555954
3.334961	1.556049
3.335449	1.555874
3.335937	1.555787
3.336426	1.555952
3.336914	1.555787
3.337402	1.555866
3.337891	1.555719
3.338379	1.555991
3.338867	1.555656
3.339355	1.555893
3.339844	1.555836
3.340332	1.555885
3.340820	1.555937
3.341309	1.555645
3.341797	1.555668
3.342285	1.555650
3.342773	1.555576
3.343262	1.555490
3.343750	1.555502
3.344238	1.555592
3.344727	1.555428
3.345215	1.555695
3.345703	1.555485
3.346191	1.555414
3.346680	1.555562
3.347168	1.555251
3.347656	1.555564
3.348145	1.555603
3.348633	1.555553
3.349121	1.555436
3.349609	1.555589
3.350098	1.555487
3.350586	1.555937
3.351074	1.555660
3.351562	1.555534
3.352051	1.555599
3.352539	1.555410
3.353027	1.555661
3.353516	1.555414
3.354004	1.555515
3.354492	1.555641
3.354980	1.555489
3.355469	1.555449
3.355957	1.555521
3.356445	1.555473
3.356934	1.555337
3.357422	1.555537
3.357910	1.555605
3.358398	1.555426
3.358887	1.555522
3.359375	1.555649
3.359863	1.555658
3.360352	1.555531
3.360840	1.555507
3.361328	1.555753
3.361816	1.555661
3.362305	1.555575
3.362793	1.555675
3.363281	1.555674
3.363770	1.555526
3.364258	1.555675
3.364746	1.555609
3.365234	1.555886
3.365723	1.555664
3.366211	1.555603
3.366699	1.555825
3.367187	1.555740
3.367676	1.555777
3.368164	1.555757
3.368652	1.555819
3.369141	1.555871
3.369629	1.555772
3.370117	1.555852
3.370605	1.555844
3.371094	1.555819
3.371582	1.555820
3.372070	1.556108
3.372559	1.555817
3.373047	1.555938
3.373535	1.555888
3.374023	1.555926
3.374512	1.556148
3.375000	1.556010
3.375488	1.556156
3.375977	1.555892
3.376465	1.556131
3.376953	1.555644
3.377441	1.555803
3.377930	1.556098
3.378418	1.555965
3.378906	1.555962
3.379395	1.556078
3.379883	1.556107
3.380371	1.556090
3.380859	1.556362
3.381348	1.555955
3.381836	1.556006
3.382324	1.556208
3.382812	1.556050
3.383301	1.556140
3.383789	1.556029
3.384277	1.556175
3.384766	1.556069
3.385254	1.556149
3.385742	1.556188
3.386230	1.556151
3.386719	1.556112
3.387207	1.556337
3.387695	1.556237
3.388184	1.556248
3.388672	1.556314
3.389160	1.556345
3.389648	1.556133
3.390137	1.556206
3.390625	1.556098
3.391113	1.556362
3.391602	1.556203
3.392090	1.556340
3.392578	1.556650
3.393066	1.556320
3.393555	1.556529
3.394043	1.556297
3.394531	1.556398
3.395020	1.556531
3.395508	1.556208
3.395996	1.556498
3.396484	1.556490
3.396973	1.556401
3.397461	1.556325
3.397949	1.556554
3.398437	1.556475
3.398926	1.556642
3.399414	1.556640
3.399902	1.556443
3.400391	1.556605
3.400879	1.556635
3.401367	1.556573
3.401855	1.556504
3.402344	1.556492
3.402832	1.556508
3.403320	1.556533
3.403809	1.556586
3.404297	1.556659
3.404785	1.556535
3.405273	1.556635
3.405762	1.556541
3.406250	1.556531
3.406738	1.556571
3.407227	1.556489
3.407715	1.556521
3.408203	1.556304
3.408691	1.556387
3.409180	1.556300
3.409668	1.556439
3.410156	1.556240
3.410645	1.556467
3.411133	1.556367
3.411621	1.556544
3.412109	1.556609
3.412598	1.556321
3.413086	1.556556
3.413574	1.556439
3.414062	1.556306
3.414551	1.556081
3.415039	1.556290
3.415527	1.556425
3.416016	1.556287
3.416504	1.556422
3.416992	1.556351
3.417480	1.556432
3.417969	1.556175
3.418457	1.556444
3.418945	1.556248
3.419434	1.556229
3.419922	1.556148
3.420410	1.556293
3.420898	1.556205
3.421387	1.556369
3.421875	1.556223
3.422363	1.556214
3.422852	1.556444
3.423340	1.556398
3.423828	1.556173
3.424316	1.556204
3.424805	1.556500
3.425293	1.556203
3.425781	1.556173
3.426270	1.556062
3.426758	1.556255
3.427246	1.556041
3.427734	1.556171
3.428223	1.555943
3.428711	1.555925
3.429199	1.556030
3.429687	1.556057
3.430176	1.555839
3.430664	1.556192
3.431152	1.556110
3.431641	1.556063
3.432129	1.555938
3.432617	1.555966
3.433105	1.556065
3.433594	1.556163
3.434082	1.555960
3.434570	1.556334
3.435059	1.556108
3.435547	1.555750
3.436035	1.556236
3.436523	1.556131
3.437012	1.556200
3.437500	1.556109
3.437988	1.556256
3.438477	1.556548
3.438965	1.556127
3.439453	1.556230
3.439941	1.556109
3.440430	1.556293
3.440918	1.556087
3.441406	1.556298
3.441895	1.556453
3.442383	1.556200
3.442871	1.556362
3.443359	1.556184
3.443848	1.556436
3.444336	1.556321
3.444824	1.556278
3.445312	1.556536
3.445801	1.556398
3.446289	1.556389
3.446777	1.556523
3.447266	1.556523
3.447754	1.556470
3.448242	1.556556
3.448730	1.556424
3.449219	1.556622
3.449707	1.556369
3.450195	1.556368
3.450684	1.556469
3.451172	1.556256
3.451660	1.556490
3.452148	1.556290
3.452637	1.556583
3.453125	1.556503
3.453613	1.556328
3.454102	1.556425
3.454590	1.556182
3.455078	1.556416
3.455566	1.556120
3.456055	1.556244
3.456543	1.556455
3.457031	1.556175
3.457520	1.556193
3.458008	1.556245
3.458496	1.556399
3.458984	1.556436
3.459473	1.556267
3.459961	1.556420
3.460449	1.556551
3.460937	1.556422
3.461426	1.556449
3.461914	1.556256
3.462402	1.556369
3.462891	1.556622
3.463379	1.556478
3.463867	1.556823
3.464355	1.556502
3.464844	1.556383
3.465332	1.556414
3.465820	1.556572
3.466309	1.556347
3.466797	1.556572
3.467285	1.556410
3.467773	1.556497
3.468262	1.556172
3.468750	1.556570
3.469238	1.556189
3.469727	1.556266
3.470215	1.556439
3.470703	1.556422
3.471191	1.556281
3.471680	1.556448
3.472168	1.556513
3.472656	1.556416
3.473145	1.556651
3.473633	1.556490
3.474121	1.556513
3.474609	1.556524
3.475098	1.556491
3.475586	1.556193
3.476074	1.556269
3.476562	1.556608
3.477051	1.556529
3.477539	1.556427
3.478027	1.556489
3.478516	1.556579
3.479004	1.556407
3.479492	1.556650
3.479980	1.556416
3.480469	1.556682
3.480957	1.556554
3.481445	1.556575
3.481934	1.556663
3.482422	1.556508
3.482910	1.556938
3.483398	1.556580
3.483887	1.556650
3.484375	1.556562
3.484863	1.556740
3.485352	1.556641
3.485840	1.556561
3.486328	1.556502
3.486816	1.556511
3.487305	1.556513
3.487793	1.556637
3.488281	1.556572
3.488770	1.556516
3.489258	1.556596
3.489746	1.556516
3.490234	1.556671
3.490723	1.556679
3.491211	1.556485
3.491699	1.556729
3.492187	1.556335
3.492676	1.556734
3.493164	1.556816
3.493652	1.556612
3.494141	1.556633
3.494629	1.556633
3.495117	1.556665
3.495605	1.556477
3.496094	1.556582
3.496582	1.556700
3.497070	1.556445
3.497559	1.556406
3.498047	1.556711
3.498535	1.556586
3.499023	1.556583
3.499512	1.556865
3.500000	1.556766
3.500488	1.556901
3.500977	1.556832
3.501465	1.556812
3.501953	1.556790
3.502441	1.556797
3.502930	1.556552
3.503418	1.556705
3.503906	1.556480
3.504395	1.556597
3.504883	1.556924
3.505371	1.556535
3.505859	1.556832
3.506348	1.556601
3.506836	1.556837
3.507324	1.556711
3.507812	1.556534
3.508301	1.556666
3.508789	1.556741
3.509277	1.556586
3.509766	1.556736
3.510254	1.556978
3.510742	1.556769
3.511230	1.556747
3.511719	1.556832
3.512207	1.556982
3.512695	1.556713
3.513184	1.556893
3.513672	1.556543
3.514160	1.556708
3.514648	1.556652
3.515137	1.556582
3.515625	1.556602
3.516113	1.556660
3.516602	1.556574
3.517090	1.556681
3.517578	1.556624
3.518066	1.556605
3.518555	1.556597
3.519043	1.556772
3.519531	1.556547
3.520020	1.556887
3.520508	1.556807
3.520996	1.556726
3.521484	1.556874
3.521973	1.556692
3.522461	1.556661
3.522949	1.556932
3.523437	1.556980
3.523926	1.556592
3.524414	1.556681
3.524902	1.556389
3.525391	1.556648
3.525879	1.556575
3.526367	1.556693
3.526855	1.556601
3.527344	1.556727
3.527832	1.556644
3.528320	1.556587
3.528809	1.556631
3.529297	1.556600
3.529785	1.556508
3.530273	1.556868
3.530762	1.556651
3.531250	1.556496
3.531738	1.556694
3.532227	1.556465
3.532715	1.556669
3.533203	1.556207
3.533691	1.556415
3.534180	1.556419
3.534668	1.556393
3.535156	1.556458
3.535645	1.556522
3.536133	1.556351
3.536621	1.556377
3.537109	1.556427
3.537598	1.556455
3.538086	1.556421
3.538574	1.556605
3.539062	1.556542
3.539551	1.556418
3.540039	1.556513
3.540527	1.556640
3.541016	1.556655
3.541504	1.556879
3.541992	1.556481
3.542480	1.556614
3.542969	1.556326
3.543457	1.556542
3.543945	1.556470
3.544434	1.556606
3.544922	1.556409
3.545410	1.556478
3.545898	1.556480
3.546387	1.556539
3.546875	1.556623
3.547363	1.556351
3.547852	1.556685
3.548340	1.556514
3.548828	1.556489
3.549316	1.556484
3.549805	1.556404
3.550293	1.556400
3.550781	1.556560
3.551270	1.556528
3.551758	1.556408
3.552246	1.556680
3.552734	1.556354
3.553223	1.556340
3.553711	1.556252
3.554199	1.556285
3.554687	1.556406
3.555176	1.556002
3.555664	1.556566
3.556152	1.556359
3.556641	1.556436
3.557129	1.556511
3.557617	1.556395
3.558105	1.556497
3.558594	1.556504
3.559082	1.556489
3.559570	1.556364
3.560059	1.556536
3.560547	1.556408
3.561035	1.556556
3.561523	1.556173
3.562012	1.556569
3.562500	1.556455
3.562988	1.556444
3.563477	1.556677
3.563965	1.556336
3.564453	1.556382
3.564941	1.556265
3.565430	1.556221
3.565918	1.556157
3.566406	1.556501
3.566895	1.556215
3.567383	1.556374
3.567871	1.556561
3.568359	1.556493
3.568848	1.556524
3.569336	1.556456
3.569824	1.556628
3.570312	1.556448
3.570801	1.556394
3.571289	1.556679
3.571777	1.556589
3.572266	1.556533
3.572754	1.556499
3.573242	1.556555
3.573730	1.556449
3.574219	1.556496
3.574707	1.556470
3.575195	1.556391
3.575684	1.556324
3.576172	1.556297
3.576660	1.556276
3.577148	1.556397
3.577637	1.556085
3.578125	1.556348
3.578613	1.556212
3.579102	1.556235
3.579590	1.556162
3.580078	1.556423
3.580566	1.556335
3.581055	1.556483
3.581543	1.556409
3.582031	1.556290
3.582520	1.556437
3.583008	1.556405
3.583496	1.556266
3.583984	1.556102
3.584473	1.556233
3.584961	1.556355
3.585449	1.556211
3.585937	1.556196
3.586426	1.556226
3.586914	1.556012
3.587402	1.556281
3.587891	1.556147
3.588379	1.556035
3.588867	1.556081
3.589355	1.556171
3.589844	1.556301
3.590332	1.556087
3.590820	1.556229
3.591309	1.556135
3.591797	1.555806
3.592285	1.556049
3.592773	1.556168
3.593262	1.556001
3.593750	1.555805
3.594238	1.556314
3.594727	1.555959
3.595215	1.556054
3.595703	1.555951
3.596191	1.556110
3.596680	1.555970
3.597168	1.555945
3.597656	1.555932
3.598145	1.555978
3.598633	1.556019
3.599121	1.556029
3.599609	1.556258
3.600098	1.556102
3.600586	1.556134
3.601074	1.556026
3.601562	1.555857
3.602051	1.556043
3.602539	1.555738
3.603027	1.555915
3.603516	1.555953
3.604004	1.555938
3.604492	1.555967
3.604980	1.556110
3.605469	1.556009
3.605957	1.556449
3.606445	1.556300
3.606934	1.556418
3.607422	1.556140
3.607910	1.556139
3.608398	1.556139
3.608887	1.556032
3.609375	1.556106
3.609863	1.556185
3.610352	1.556182
3.610840	1.556159
3.611328	1.556198
3.611816	1.556060
3.612305	1.556245
3.612793	1.556050
3.613281	1.556403
3.613770	1.556098
3.614258	1.556212
3.614746	1.556007
3.615234	1.556281
3.615723	1.556248
3.616211	1.556476
3.616699	1.556078
3.617187	1.556211
3.617676	1.556139
3.618164	1.556141
3.618652	1.556239
3.619141	1.555977
3.619629	1.556524
3.620117	1.556248
3.620605	1.556248
3.621094	1.556211
3.621582	1.556044
3.622070	1.556239
3.622559	1.556071
3.623047	1.556120
3.623535	1.556328
3.624023	1.556095
3.624512	1.556173
3.625000	1.556306
3.625488	1.556322
3.625977	1.556202
3.626465	1.556203
3.626953	1.556341
3.627441	1.556249
3.627930	1.556048
3.628418	1.556113
3.628906	1.556169
3.629395	1.556250
3.629883	1.556099
3.630371	1.556290
3.630859	1.556045
3.631348	1.556236
3.631836	1.556273
3.632324	1.556054
3.632812	1.556135
3.633301	1.556068
3.633789	1.556145
3.634277	1.556016
3.634766	1.555894
3.635254	1.556174
3.635742	1.556165
3.636230	1.556179
3.636719	1.556229
3.637207	1.556102
3.637695	1.556328
3.638184	1.556168
3.638672	1.556106
3.639160	1.556445
3.639648	1.556080
3.640137	1.556342
3.640625	1.556416
3.641113	1.556091
3.641602	1.556331
3.642090	1.556063
3.642578	1.556439
3.643066	1.556276
3.643555	1.556203
3.644043	1.556012
3.644531	1.556256
3.645020	1.556106
3.645508	1.556206
3.645996	1.556132
3.646484	1.556237
3.646973	1.556142
3.647461	1.556129
3.647949	1.556278
3.648437	1.556060
3.648926	1.556116
3.649414	1.556257
3.649902	1.556149
3.650391	1.556213
3.650879	1.556313
3.651367	1.556194
3.651855	1.556192
3.652344	1.556145
3.652832	1.556205
3.653320	1.556301
3.653809	1.556191
3.654297	1.556093
3.654785	1.556328
3.655273	1.556317
3.655762	1.556340
3.656250	1.556257
3.656738	1.556352
3.657227	1.556063
3.657715	1.556281
3.658203	1.556187
3.658691	1.556309
3.659180	1.556214
3.659668	1.556217
3.660156	1.556344
3.660645	1.556267
3.661133	1.556221
3.661621	1.555932
3.662109	1.556324
3.662598	1.556284
3.663086	1.555956
3.663574	1.556312
3.664062	1.556037
3.664551	1.556364
3.665039	1.556368
3.665527	1.556221
3.666016	1.556256
3.666504	1.556149
3.666992	1.556041
3.667480	1.556260
3.667969	1.556095
3.668457	1.556165
3.668945	1.556287
3.669434	1.556091
3.669922	1.556409
3.670410	1.556271
3.670898	1.556251
3.671387	1.556185
3.671875	1.556218
3.672363	1.556300
3.672852	1.556183
3.673340	1.556323
3.673828	1.556139
3.674316	1.556151
3.674805	1.556354
3.675293	1.556134
3.675781	1.556155
3.676270	1.556311
3.676758	1.556315
3.677246	1.556370
3.677734	1.556289
3.678223	1.556733
3.678711	1.556344
3.679199	1.556126
3.679687	1.556283
3.680176	1.555981
3.680664	1.556375
3.681152	1.556217
3.681641	1.556315
3.682129	1.556242
3.682617	1.556387
3.683105	1.556349
3.683594	1.556140
3.684082	1.556130
3.684570	1.556013
3.685059	1.556073
3.685547	1.556173
3.686035	1.556154
3.686523	1.556068
3.687012	1.556276
3.687500	1.555870
3.687988	1.556148
3.688477	1.556207
3.688965	1.556054
3.689453	1.556263
3.689941	1.556174
3.690430	1.556325
3.690918	1.556154
3.691406	1.556411
3.691895	1.556193
3.692383	1.556327
3.692871	1.556562
3.693359	1.556275
3.693848	1.556387
3.694336	1.556452
3.694824	1.556419
3.695312	1.556381
3.695801	1.556367
3.696289	1.556356
3.696777	1.556412
3.697266	1.556268
3.697754	1.556212
3.698242	1.556541
3.698730	1.556382
3.699219	1.556372
3.699707	1.556542
3.700195	1.556450
3.700684	1.556469
3.701172	1.556442
3.701660	1.556383
3.702148	1.556235
3.702637	1.556334
3.703125	1.556297
3.703613	1.556489
3.704102	1.556497
3.704590	1.556673
3.705078	1.556543
3.705566	1.556535
3.706055	1.556418
3.706543	1.556458
3.707031	1.556612
3.707520	1.556381
3.708008	1.556423
3.708496	1.556663
3.708984	1.556513
3.709473	1.556470
3.709961	1.556380
3.710449	1.556526
3.710937	1.556727
3.711426	1.556377
3.711914	1.556691
3.712402	1.556502
3.712891	1.556229
3.713379	1.556553
3.713867	1.556461
3.714355	1.556582
3.714844	1.556624
3.715332	1.556393
3.715820	1.556583
3.716309	1.556129
3.716797	1.556257
3.717285	1.556455
3.717773	1.556334
3.718262	1.556297
3.718750	1.556354
3.719238	1.556668
3.719727	1.556547
3.720215	1.556458
3.720703	1.556506
3.721191	1.556261
3.721680	1.556322
3.722168	1.556370
3.722656	1.556318
3.723145	1.556477
3.723633	1.556204
3.724121	1.556309
3.724609	1.556203
3.725098	1.556274
3.725586	1.556405
3.726074	1.556375
3.726562	1.556419
3.727051	1.556379
3.727539	1.556347
3.728027	1.556308
3.728516	1.556393
3.729004	1.556347
3.729492	1.556104
3.729980	1.556489
3.730469	1.556500
3.730957	1.556502
3.731445	1.556477
3.731934	1.556561
3.732422	1.556489
3.732910	1.556223
3.733398	1.556314
3.733887	1.556297
3.734375	1.556314
3.734863	1.556402
3.735352	1.556573
3.735840	1.556472
3.736328	1.556273
3.736816	1.556517
3.737305	1.556363
3.737793	1.556362
3.738281	1.556469
3.738770	1.556554
3.739258	1.556520
3.739746	1.556537
3.740234	1.556533
3.740723	1.556639
3.741211	1.556369
3.741699	1.556673
3.742187	1.556831
3.742676	1.556582
3.743164	1.556654
3.743652	1.556327
3.744141	1.556427
3.744629	1.556516
3.745117	1.556467
3.745605	1.556724
3.746094	1.556502
3.746582	1.556481
3.747070	1.556458
3.747559	1.556560
3.748047	1.556213
3.748535	1.556373
3.749023	1.556454
3.749512	1.556513
3.750000	1.556412
3.750488	1.556572
3.750977	1.556172
3.751465	1.556358
3.751953	1.556448
3.752441	1.556405
3.752930	1.556715
3.753418	1.556362
3.753906	1.556336
3.754395	1.556279
3.754883	1.556284
3.755371	1.556392
3.755859	1.556140
3.756348	1.556478
3.756836	1.556315
3.757324	1.556249
3.757812	1.556371
3.758301	1.556378
3.758789	1.556311
3.759277	1.556143
3.759766	1.556338
3.760254	1.556431
3.760742	1.556482
3.761230	1.556304
3.761719	1.556442
3.762207	1.556462
3.762695	1.556353
3.763184	1.556392
3.763672	1.556364
3.764160	1.556380
3.764648	1.556323
3.765137	1.556242
3.765625	1.556364
3.766113	1.556164
3.766602	1.556251
3.767090	1.556412
3.767578	1.556133
3.768066	1.556380
3.768555	1.556419
3.769043	1.556206
3.769531	1.556155
3.770020	1.556210
3.770508	1.556514
3.770996	1.556352
3.771484	1.556110
3.771973	1.556551
3.772461	1.556424
3.772949	1.556429
3.773437	1.556508
3.773926	1.556292
3.774414	1.556383
3.774902	1.556495
3.775391	1.556463
3.775879	1.556351
3.776367	1.556434
3.776855	1.556487
3.777344	1.556241
3.777832	1.556490
3.778320	1.556552
3.778809	1.556463
3.779297	1.556198
3.779785	1.556444
3.780273	1.556540
3.780762	1.556506
3.781250	1.556349
3.781738	1.556455
3.782227	1.556456
3.782715	1.556408
3.783203	1.556521
3.783691	1.556291
3.784180	1.556401
3.784668	1.556298
3.785156	1.556558
3.785645	1.556309
3.786133	1.556652
3.786621	1.556402
3.787109	1.556303
3.787598	1.556442
3.788086	1.556500
3.788574	1.556446
3.789062	1.556273
3.789551	1.556423
3.790039	1.556484
3.790527	1.556517
3.791016	1.556516
3.791504	1.556510
3.791992	1.556464
3.792480	1.556472
3.792969	1.556597
3.793457	1.556480
3.793945	1.556468
3.794434	1.556403
3.794922	1.556598
3.795410	1.556465
3.795898	1.556416
3.796387	1.556467
3.796875	1.556354
3.797363	1.556533
3.797852	1.556473
3.798340	1.556524
3.798828	1.556342
3.799316	1.556560
3.799805	1.556498
3.800293	1.556653
3.800781	1.556566
3.801270	1.556389
3.801758	1.556467
3.802246	1.556423
3.802734	1.556351
3.803223	1.556306
3.803711	1.556479
3.804199	1.556400
3.804687	1.556459
3.805176	1.556453
3.805664	1.556565
3.806152	1.556289
3.806641	1.556313
3.807129	1.556458
3.807617	1.556366
3.808105	1.556419
3.808594	1.556391
3.809082	1.556510
3.809570	1.556275
3.810059	1.556397
3.810547	1.556565
3.811035	1.556741
3.811523	1.556632
3.812012	1.556438
3.812500	1.556573
3.812988	1.556036
3.813477	1.556500
3.813965	1.556140
3.814453	1.556279
3.814941	1.556344
3.815430	1.556392
3.815918	1.556320
3.816406	1.556505
3.816895	1.556427
3.817383	1.556564
3.817871	1.556563
3.818359	1.556315
3.818848	1.556580
3.819336	1.556405
3.819824	1.556502
3.820312	1.556485
3.820801	1.556393
3.821289	1.556193
3.821777	1.556465
3.822266	1.556293
3.822754	1.556240
3.823242	1.556320
3.823730	1.556408
3.824219	1.556124
3.824707	1.556439
3.825195	1.556248
3.825684	1.556449
3.826172	1.556611
3.826660	1.556416
3.827148	1.556527
3.827637	1.556361
3.828125	1.556582
3.828613	1.556389
3.829102	1.556461
3.829590	1.556271
3.830078	1.556558
3.830566	1.556575
3.831055	1.556430
3.831543	1.556377
3.832031	1.556670
3.832520	1.556334
3.833008	1.556603
3.833496	1.556478
3.833984	1.556272
3.834473	1.556524
3.834961	1.556236
3.835449	1.556480
3.835937	1.556165
3.836426	1.556212
3.836914	1.556308
3.837402	1.556437
3.837891	1.556244
3.838379	1.556491
3.838867	1.556444
3.839355	1.556496
3.839844	1.556676
3.840332	1.556450
3.840820	1.556656
3.841309	1.556300
3.841797	1.556309
3.842285	1.556599
3.842773	1.556326
3.843262	1.556757
3.843750	1.556394
3.844238	1.556267
3.844727	1.556329
3.845215	1.556463
3.845703	1.556323
3.846191	1.556371
3.846680	1.556268
3.847168	1.556112
3.847656	1.556222
3.848145	1.556336
3.848633	1.556300
3.849121	1.556089
3.849609	1.556236
3.850098	1.556276
3.850586	1.556123
3.851074	1.556248
3.851562	1.556211
3.852051	1.556217
3.852539	1.556464
3.853027	1.556137
3.853516	1.556051
3.854004	1.555804
3.854492	1.556076
3.854980	1.556135
3.855469	1.555977
3.855957	1.556286
3.856445	1.556076
3.856934	1.556137
3.857422	1.556143
3.857910	1.556016
3.858398	1.556376
3.858887	1.555943
3.859375	1.556152
3.859863	1.556338
3.860352	1.556315
3.860840	1.556245
3.861328	1.556339
3.861816	1.556336
3.862305	1.556273
3.862793	1.556213
3.863281	1.556452
3.863770	1.556309
3.864258	1.556190
3.864746	1.556483
3.865234	1.556514
3.865723	1.556412
3.866211	1.556458
3.866699	1.556525
3.867187	1.556643
3.867676	1.556567
3.868164	1.556650
3.868652	1.556422
3.869141	1.556572
3.869629	1.556711
3.870117	1.556828
3.870605	1.556461
3.871094	1.556608
3.871582	1.556482
3.872070	1.556623
3.872559	1.556608
3.873047	1.556543
3.873535	1.556357
3.874023	1.556491
3.874512	1.556497
3.875000	1.556355
3.875488	1.556409
3.875977	1.556480
3.876465	1.556408
3.876953	1.556406
3.877441	1.556528
3.877930	1.556403
3.878418	1.556306
3.878906	1.556303
3.879395	1.556643
3.879883	1.556423
3.880371	1.556589
3.880859	1.556733
3.881348	1.556362
3.881836	1.556338
3.882324	1.556308
3.882812	1.556597
3.883301	1.556440
3.883789	1.556099
3.884277	1.556719
3.884766	1.556363
3.885254	1.556589
3.885742	1.556563
3.886230	1.556460
3.886719	1.556710
3.887207	1.556247
3.887695	1.556398
3.888184	1.556511
3.888672	1.556480
3.889160	1.556179
3.889648	1.556334
3.890137	1.556363
3.890625	1.556618
3.891113	1.556457
3.891602	1.556617
3.892090	1.556348
3.892578	1.556248
3.893066	1.556414
3.893555	1.556096
3.894043	1.556157
3.894531	1.556110
3.895020	1.556272
3.895508	1.556319
3.895996	1.556133
3.896484	1.556112
3.896973	1.556141
3.897461	1.556048
3.897949	1.556125
3.898437	1.556221
3.898926	1.555938
3.899414	1.555961
3.899902	1.556247
3.900391	1.556211
3.900879	1.556297
3.901367	1.556012
3.901855	1.556093
3.902344	1.556137
3.902832	1.556223
3.903320	1.556030
3.903809	1.556038
3.904297	1.555998
3.904785	1.556024
3.905273	1.556112
3.905762	1.556057
3.906250	1.556135
3.906738	1.556016
3.907227	1.556099
3.907715	1.556203
3.908203	1.556163
3.908691	1.556155
3.909180	1.556151
3.909668	1.556195
3.910156	1.556290
3.910645	1.556325
3.911133	1.556155
3.911621	1.555921
3.912109	1.556259
3.912598	1.556211
3.913086	1.556153
3.913574	1.556200
3.914062	1.556168
3.914551	1.556452
3.915039	1.556074
3.915527	1.556125
3.916016	1.556197
3.916504	1.556117
3.916992	1.555980
3.917480	1.556217
3.917969	1.556185
3.918457	1.556122
3.918945	1.555963
3.919434	1.556058
3.919922	1.556231
3.920410	1.556165
3.920898	1.556420
3.921387	1.556184
3.921875	1.556306
3.922363	1.556254
3.922852	1.556277
3.923340	1.556295
3.923828	1.556228
3.924316	1.556118
3.924805	1.556315
3.925293	1.556369
3.925781	1.556268
3.926270	1.556267
3.926758	1.556248
3.927246	1.556321
3.927734	1.556045
3.928223	1.556245
3.928711	1.556149
3.929199	1.556206
3.929687	1.555954
3.930176	1.556034
3.930664	1.556221
3.931152	1.556063
3.931641	1.556005
3.932129	1.556295
3.932617	1.556186
3.933105	1.556299
3.933594	1.556426
3.934082	1.556260
3.934570	1.556193
3.935059	1.556443
3.935547	1.556387
3.936035	1.556402
3.936523	1.556781
3.937012	1.556302
3.937500	1.556355
3.937988	1.556390
3.938477	1.556346
3.938965	1.556137
3.939453	1.556459
3.939941	1.556486
3.940430	1.556373
3.940918	1.556342
3.941406	1.556242
3.941895	1.556188
3.942383	1.556087
3.942871	1.556236
3.943359	1.556250
3.943848	1.556003
3.944336	1.556306
3.944824	1.556265
3.945312	1.556085
3.945801	1.556082
3.946289	1.556009
3.946777	1.556126
3.947266	1.555841
3.947754	1.556054
3.948242	1.556088
3.948730	1.556073
3.949219	1.555923
3.949707	1.556134
3.950195	1.556131
3.950684	1.556000
3.951172	1.555877
3.951660	1.556079
3.952148	1.556020
3.952637	1.555968
3.953125	1.555924
3.953613	1.555728
3.954102	1.555990
3.954590	1.556031
3.955078	1.555958
3.955566	1.555802
3.956055	1.555865
3.956543	1.555927
3.957031	1.555886
3.957520	1.555958
3.958008	1.555706
3.958496	1.555708
3.958984	1.555971
3.959473	1.555926
3.959961	1.555983
3.960449	1.555999
3.960937	1.556048
3.961426	1.555955
3.961914	1.555987
3.962402	1.555887
3.962891	1.555971
3.963379	1.555957
3.963867	1.555950
3.964355	1.555974
3.964844	1.556134
3.965332	1.556018
3.965820	1.556157
3.966309	1.555738
3.966797	1.555957
3.967285	1.556037
3.967773	1.555871
3.968262	1.555864
3.968750	1.556116
3.969238	1.555901
3.969727	1.556132
3.970215	1.556096
3.970703	1.556096
3.971191	1.556179
3.971680	1.556039
3.972168	1.556226
3.972656	1.556269
3.973145	1.556184
3.973633	1.556359
3.974121	1.556129
3.974609	1.556240
3.975098	1.556142
3.975586	1.556052
3.976074	1.556090
3.976562	1.556275
3.977051	1.556314
3.977539	1.556278
3.978027	1.556232
3.978516	1.556444
3.979004	1.556118
3.979492	1.556287
3.979980	1.556286
3.980469	1.556372
3.980957	1.556306
3.981445	1.556286
3.981934	1.556575
3.982422	1.556331
3.982910	1.556422
3.983398	1.556407
3.983887	1.556237
3.984375	1.556262
3.984863	1.556077
3.985352	1.556575
3.985840	1.556553
3.986328	1.556266
3.986816	1.556529
3.987305	1.556466
3.987793	1.556339
3.988281	1.556367
3.988770	1.556280
3.989258	1.556312
3.989746	1.556401
3.990234	1.556337
3.990723	1.556286
3.991211	1.556353
3.991699	1.556110
3.992187	1.556274
3.992676	1.556361
3.993164	1.556238
3.993652	1.556393
3.994141	1.556177
3.994629	1.556398
3.995117	1.556240
3.995605	1.556234
3.996094	1.556283
3.996582	1.556070
3.997070	1.556193
3.997559	1.556144
3.998047	1.555995
3.998535	1.556239
3.999023	1.556177
3.999512	1.556069
4.000000	1.556239
4.000488	1.556333
4.000977	1.556190
4.001465	1.556055
4.001953	1.556273
4.002441	1.556130
4.002930	1.556230
4.003418	1.556086
4.003906	1.555965
4.004395	1.556093
4.004883	1.555984
4.005371	1.556133
4.005859	1.555831
4.006348	1.556157
4.006836	1.556123
4.007324	1.556222
4.007812	1.555901
4.008301	1.556101
4.008789	1.556037
4.009277	1.556394
4.009766	1.556084
4.010254	1.556092
4.010742	1.556086
4.011230	1.556096
4.011719	1.556102
4.012207	1.555944
4.012695	1.555871
4.013184	1.556047
4.013672	1.555964
4.014160	1.555926
4.014648	1.556052
4.015137	1.555855
4.015625	1.555972
4.016113	1.556010
4.016602	1.555865
4.017090	1.555964
4.017578	1.556145
4.018066	1.555933
4.018555	1.556128
4.019043	1.556055
4.019531	1.555987
4.020020	1.556208
4.020508	1.556308
4.020996	1.555887
4.021484	1.555905
4.021973	1.556103
4.022461	1.555974
4.022949	1.556034
4.023437	1.555823
4.023926	1.555882
4.024414	1.555723
4.024902	1.555976
4.025391	1.555864
4.025879	1.555846
4.026367	1.555785
4.026855	1.555810
4.027344	1.555782
4.027832	1.555858
4.028320	1.556086
4.028809	1.555890
4.029297	1.555951
4.029785	1.556042
4.030273	1.556088
4.030762	1.556068
4.031250	1.556210
4.031738	1.556018
4.032227	1.556066
4.032715	1.556167
4.033203	1.556101
4.033691	1.556190
4.034180	1.555980
4.034668	1.556089
4.035156	1.556072
4.035645	1.555697
4.036133	1.556032
4.036621	1.555775
4.037109	1.555988
4.037598	1.555998
4.038086	1.555979
4.038574	1.556015
4.039062	1.556084
4.039551	1.555890
4.040039	1.556354
4.040527	1.556120
4.041016	1.555890
4.041504	1.556009
4.041992	1.556086
4.042480	1.556060
4.042969	1.556142
4.043457	1.556032
4.043945	1.555804
4.044434	1.556034
4.044922	1.555895
4.045410	1.556016
4.045898	1.555932
4.046387	1.555984
4.046875	1.556027
4.047363	1.556208
4.047852	1.556104
4.048340	1.556149
4.048828	1.555997
4.049316	1.556227
4.049805	1.556077
4.050293	1.556254
4.050781	1.556150
4.051270	1.556344
4.051758	1.556319
4.052246	1.555905
4.052734	1.556254
4.053223	1.555961
4.053711	1.556151
4.054199	1.555922
4.054687	1.556173
4.055176	1.556371
4.055664	1.556152
4.056152	1.556329
4.056641	1.556351
4.057129	1.556328
4.057617	1.556492
4.058105	1.556576
4.058594	1.556342
4.059082	1.556628
4.059570	1.556396
4.060059	1.556492
4.060547	1.556495
4.061035	1.556605
4.061523	1.556575
4.062012	1.556599
4.062500	1.556520
4.062988	1.556572
4.063477	1.556488
4.063965	1.556275
4.064453	1.556424
4.064941	1.556287
4.065430	1.556399
4.065918	1.556344
4.066406	1.556486
4.066895	1.556310
4.067383	1.556428
4.067871	1.556324
4.068359	1.556592
4.068848	1.556298
4.069336	1.556546
4.069824	1.556603
4.070312	1.556301
4.070801	1.556553
4.071289	1.556611
4.071777	1.556692
4.072266	1.556639
4.072754	1.556643
4.073242	1.556909
4.073730	1.556474
4.074219	1.556531
4.074707	1.556678
4.075195	1.556463
4.075684	1.556660
4.076172	1.556593
4.076660	1.556641
4.077148	1.556538
4.077637	1.556716
4.078125	1.556813
4.078613	1.556319
4.079102	1.556636
4.079590	1.556500
4.080078	1.556753
4.080566	1.556605
4.081055	1.556679
4.081543	1.556915
4.082031	1.556589
4.082520	1.556552
4.083008	1.556423
4.083496	1.556397
4.083984	1.556511
4.084473	1.556535
4.084961	1.556485
4.085449	1.556373
4.085937	1.556329
4.086426	1.556514
4.086914	1.556496
4.087402	1.556446
4.087891	1.556555
4.088379	1.556472
4.088867	1.556447
4.089355	1.556238
4.089844	1.556314
4.090332	1.556490
4.090820	1.556494
4.091309	1.556029
4.091797	1.556326
4.092285	1.556507
4.092773	1.556260
4.093262	1.556372
4.093750	1.556318
4.094238	1.556238
4.094727	1.556217
4.095215	1.556305
4.095703	1.556346
4.096191	1.556317
4.096680	1.555998
4.097168	1.556102
4.097656	1.556150
4.098145	1.556074
4.098633	1.556118
4.099121	1.556204
4.099609	1.556087
4.100098	1.556185
4.100586	1.556493
4.101074	1.556184
4.101562	1.556278
4.102051	1.556109
4.102539	1.556121
4.103027	1.556061
4.103516	1.555833
4.104004	1.556211
4.104492	1.556087
4.104980	1.556209
4.105469	1.556167
4.105957	1.556186
4.106445	1.556005
4.106934	1.556112
4.107422	1.556085
4.107910	1.556008
4.108398	1.555987
4.108887	1.556203
4.109375	1.555835
4.109863	1.555991
4.110352	1.556072
4.110840	1.555963
4.111328	1.555840
4.111816	1.555981
4.112305	1.555759
4.112793	1.555998
4.113281	1.556185
4.113770	1.555928
4.114258	1.555945
4.114746	1.556001
4.115234	1.556103
4.115723	1.555906
4.116211	1.556002
4.116699	1.555979
4.117187	1.556339
4.117676	1.555798
4.118164	1.556035
4.118652	1.555888
4.119141	1.555767
4.119629	1.555921
4.120117	1.556056
4.120605	1.556165
4.121094	1.556120
4.121582	1.556239
4.122070	1.556068
4.122559	1.556085
4.123047	1.555888
4.123535	1.555998
4.124023	1.555937
4.124512	1.555968
4.125000	1.555854
4.125488	1.555812
4.125977	1.555775
4.126465	1.555834
4.126953	1.555738
4.127441	1.555892
4.127930	1.555949
4.128418	1.555924
4.128906	1.555914
4.129395	1.555983
4.129883	1.556038
4.130371	1.555963
4.130859	1.555903
4.131348	1.556159
4.131836	1.556060
4.132324	1.555968
4.132812	1.555894
4.133301	1.556063
4.133789	1.556071
4.134277	1.556311
4.134766	1.556109
4.135254	1.556114
4.135742	1.555984
4.136230	1.556022
4.136719	1.556099
4.137207	1.555982
4.137695	1.556168
4.138184	1.556198
4.138672	1.556198
4.139160	1.556073
4.139648	1.555878
4.140137	1.556114
4.140625	1.556115
4.141113	1.556070
4.141602	1.556491
4.142090	1.556091
4.142578	1.556061
4.143066	1.556165
4.143555	1.556041
4.144043	1.556142
4.144531	1.555915
4.145020	1.556314
4.145508	1.556221
4.145996	1.556142
4.146484	1.556181
4.146973	1.556107
4.147461	1.556239
4.147949	1.556081
4.148437	1.556093
4.148926	1.556110
4.149414	1.556227
4.149902	1.556018
4.150391	1.556281
4.150879	1.556238
4.151367	1.556244
4.151855	1.556448
4.152344	1.556309
4.152832	1.556494
4.153320	1.556186
4.153809	1.556223
4.154297	1.556120
4.154785	1.556254
4.155273	1.556627
4.155762	1.556321
4.156250	1.556659
4.156738	1.556252
4.157227	1.556240
4.157715	1.556489
4.158203	1.556419
4.158691	1.556308
4.159180	1.556294
4.159668	1.556527
4.160156	1.556386
4.160645	1.556531
4.161133	1.556419
4.161621	1.556564
4.162109	1.556610
4.162598	1.556561
4.163086	1.556551
4.163574	1.556641
4.164062	1.556428
4.164551	1.556805
4.165039	1.556392
4.165527	1.556492
4.166016	1.556484
4.166504	1.556572
4.166992	1.556575
4.167480	1.556579
4.167969	1.556520
4.168457	1.556513
4.168945	1.556567
4.169434	1.556500
4.169922	1.556607
4.170410	1.556512
4.170898	1.556451
4.171387	1.556511
4.171875	1.556355
4.172363	1.556604
4.172852	1.556580
4.173340	1.556430
4.173828	1.556479
4.174316	1.556572
4.174805	1.556549
4.175293	1.556267
4.175781	1.556426
4.176270	1.556655
4.176758	1.556596
4.177246	1.556443
4.177734	1.556685
4.178223	1.556644
4.178711	1.556431
4.179199	1.556636
4.179687	1.556434
4.180176	1.556530
4.180664	1.556561
4.181152	1.556447
4.181641	1.556283
4.182129	1.556456
4.182617	1.556375
4.183105	1.556415
4.183594	1.556630
4.184082	1.556375
4.184570	1.556491
4.185059	1.556469
4.185547	1.556638
4.186035	1.556264
4.186523	1.556315
4.187012	1.556527
4.187500	1.556495
4.187988	1.556602
4.188477	1.556367
4.188965	1.556682
4.189453	1.556535
4.189941	1.556416
4.190430	1.556492
4.190918	1.556552
4.191406	1.556492
4.191895	1.556436
4.192383	1.556324
4.192871	1.556319
4.193359	1.556156
4.193848	1.556099
4.194336	1.556437
4.194824	1.556140
4.195312	1.556243
4.195801	1.556253
4.196289	1.555739
4.196777	1.556289
4.197266	1.556146
4.197754	1.556297
4.198242	1.556307
4.198730	1.556305
4.199219	1.556148
4.199707	1.556385
4.200195	1.556428
4.200684	1.556157
4.201172	1.556310
4.201660	1.556384
4.202148	1.556331
4.202637	1.556154
4.203125	1.556176
4.203613	1.555985
4.204102	1.556206
4.204590	1.556287
4.205078	1.556242
4.205566	1.555955
4.206055	1.556417
4.206543	1.556176
4.207031	1.556261
4.207520	1.556366
4.208008	1.556187
4.208496	1.556302
4.208984	1.556201
4.209473	1.556066
4.209961	1.556227
4.210449	1.556024
4.210937	1.556375
4.211426	1.556395
4.211914	1.556302
4.212402	1.556173
4.212891	1.556417
4.213379	1.556143
4.213867	1.556222
4.214355	1.556066
4.214844	1.556087
4.215332	1.556066
4.215820	1.556057
4.216309	1.556126
4.216797	1.556206
4.217285	1.555993
4.217773	1.556040
4.218262	1.556349
4.218750	1.555971
4.219238	1.556189
4.219727	1.556195
4.220215	1.556261
4.220703	1.556193
4.221191	1.556266
4.221680	1.556221
4.222168	1.556228
4.222656	1.556299
4.223145	1.556484
4.223633	1.556070
4.224121	1.556179
4.224609	1.556103
4.225098	1.556312
4.225586	1.556247
4.226074	1.556265
4.226562	1.556112
4.227051	1.556262
4.227539	1.556178
4.228027	1.556387
4.228516	1.556347
4.229004	1.556219
4.229492	1.556380
4.229980	1.556381
4.230469	1.556464
4.230957	1.556113
4.231445	1.556311
4.231934	1.556304
4.232422	1.556347
4.232910	1.556088
4.233398	1.556237
4.233887	1.556179
4.234375	1.556312
4.234863	1.556189
4.235352	1.556116
4.235840	1.556248
4.236328	1.556187
4.236816	1.556057
4.237305	1.556174
4.237793	1.556326
4.238281	1.556062
4.238770	1.556043
4.239258	1.556328
4.239746	1.556350
4.240234	1.556293
4.240723	1.556389
4.241211	1.556177
4.241699	1.556565
4.242187	1.556413
4.242676	1.556512
4.243164	1.556494
4.243652	1.556420
4.244141	1.556468
4.244629	1.556330
4.245117	1.556369
4.245605	1.556436
4.246094	1.556297
4.246582	1.556566
4.247070	1.556462
4.247559	1.556035
4.248047	1.556550
4.248535	1.556504
4.249023	1.556520
4.249512	1.556251
4.250000	1.556454
4.250488	1.556697
4.250977	1.556365
4.251465	1.556488
4.251953	1.556298
4.252441	1.556331
4.252930	1.556294
4.253418	1.556445
4.253906	1.556565
4.254395	1.556458
4.254883	1.556483
4.255371	1.556574
4.255859	1.556306
4.256348	1.556434
4.256836	1.556443
4.257324	1.556621
4.257812	1.556386
4.258301	1.556661
4.258789	1.556691
4.259277	1.556510
4.259766	1.556555
4.260254	1.556520
4.260742	1.556636
4.261230	1.556684
4.261719	1.556628
4.262207	1.556976
4.262695	1.556311
4.263184	1.556472
4.263672	1.556535
4.264160	1.556386
4.264648	1.556485
4.265137	1.556521
4.265625	1.556804
4.266113	1.556555
4.266602	1.556345
4.267090	1.556470
4.267578	1.556311
4.268066	1.556472
4.268555	1.556509
4.269043	1.556389
4.269531	1.556467
4.270020	1.556517
4.270508	1.556536
4.270996	1.556115
4.271484	1.556387
4.271973	1.556384
4.272461	1.556359
4.272949	1.556165
4.273437	1.556229
4.273926	1.556105
4.274414	1.556138
4.274902	1.556149
4.275391	1.556085
4.275879	1.556049
4.276367	1.556120
4.276855	1.556121
4.277344	1.556012
4.277832	1.555954
4.278320	1.555902
4.278809	1.556159
4.279297	1.556125
4.279785	1.556053
4.280273	1.556430
4.280762	1.556083
4.281250	1.556077
4.281738	1.556005
4.282227	1.555999
4.282715	1.556192
4.283203	1.556066
4.283691	1.556051
4.284180	1.556002
4.284668	1.555916
4.285156	1.555747
4.285645	1.556060
4.286133	1.555890
4.286621	1.556270
4.287109	1.555921
4.287598	1.556027
4.288086	1.555781
4.288574	1.555958
4.289062	1.556021
4.289551	1.555948
4.290039	1.555998
4.290527	1.556020
4.291016	1.555887
4.291504	1.555841
4.291992	1.555932
4.292480	1.555814
4.292969	1.555963
4.293457	1.555962
4.293945	1.555807
4.294434	1.555874
4.294922	1.555850
4.295410	1.555802
4.295898	1.555835
4.296387	1.555866
4.296875	1.555906
4.297363	1.555898
4.297852	1.555879
4.298340	1.555817
4.298828	1.556038
4.299316	1.555770
4.299805	1.555967
4.300293	1.555681
4.300781	1.555940
4.301270	1.555884
4.301758	1.555869
4.302246	1.555759
4.302734	1.555725
4.303223	1.555974
4.303711	1.555616
4.304199	1.555955
4.304687	1.555693
4.305176	1.555777
4.305664	1.555727
4.306152	1.555899
4.306641	1.555503
4.307129	1.555702
4.307617	1.555629
4.308105	1.555588
4.308594	1.555610
4.309082	1.555602
4.309570	1.555546
4.310059	1.555607
4.310547	1.555789
4.311035	1.555509
4.311523	1.555613
4.312012	1.555706
4.312500	1.555525
4.312988	1.555757
4.313477	1.555777
4.313965	1.555309
4.314453	1.555660
4.314941	1.555561
4.315430	1.555689
4.315918	1.555452
4.316406	1.555276
4.316895	1.555610
4.317383	1.555495
4.317871	1.555425
4.318359	1.555580
4.318848	1.555379
4.319336	1.555681
4.319824	1.555593
4.320312	1.555612
4.320801	1.555694
4.321289	1.555611
4.321777	1.555758
4.322266	1.555523
4.322754	1.555620
4.323242	1.555743
4.323730	1.555699
4.324219	1.555504
4.324707	1.555641
4.325195	1.555460
4.325684	1.555886
4.326172	1.555633
4.326660	1.555764
4.327148	1.555716
4.327637	1.555900
4.328125	1.555866
4.328613	1.555886
4.329102	1.555755
4.329590	1.555924
4.330078	1.555736
4.330566	1.555909
4.331055	1.555913
4.331543	1.555901
4.332031	1.556049
4.332520	1.556087
4.333008	1.555867
4.333496	1.556251
4.333984	1.555720
4.334473	1.555934
4.334961	1.556168
4.335449	1.556021
4.335937	1.556344
4.336426	1.556164
4.336914	1.556113
4.337402	1.556025
4.337891	1.556268
4.338379	1.556035
4.338867	1.556333
4.339355	1.556282
4.339844	1.556224
4.340332	1.556275
4.340820	1.556489
4.341309	1.556093
4.341797	1.555978
4.342285	1.556321
4.342773	1.556358
4.343262	1.556329
4.343750	1.556181
4.344238	1.556031
4.344727	1.556153
4.345215	1.556172
4.345703	1.556384
4.346191	1.556164
4.346680	1.556181
4.347168	1.556664
4.347656	1.556412
4.348145	1.556348
4.348633	1.556244
4.349121	1.556436
4.349609	1.556440
4.350098	1.556614
4.350586	1.556440
4.351074	1.556427
4.351562	1.556266
4.352051	1.556463
4.352539	1.556424
4.353027	1.556438
4.353516	1.556815
4.354004	1.556412
4.354492	1.556503
4.354980	1.556420
4.355469	1.556378
4.355957	1.556529
4.356445	1.556528
4.356934	1.556752
4.357422	1.556585
4.357910	1.556472
4.358398	1.556589
4.358887	1.556733
4.359375	1.556572
4.359863	1.556400
4.360352	1.556619
4.360840	1.556575
4.361328	1.556414
4.361816	1.556669
4.362305	1.556531
4.362793	1.556556
4.363281	1.556449
4.363770	1.556559
4.364258	1.556425
4.364746	1.556451
4.365234	1.556326
4.365723	1.556472
4.366211	1.556416
4.366699	1.556501
4.367187	1.556545
4.367676	1.556364
4.368164	1.556708
4.368652	1.556499
4.369141	1.556338
4.369629	1.556469
4.370117	1.556450
4.370605	1.556603
4.371094	1.556506
4.371582	1.556629
4.372070	1.556503
4.372559	1.556444
4.373047	1.556545
4.373535	1.556492
4.374023	1.556467
4.374512	1.556505
4.375000	1.556594
4.375488	1.556593
4.375977	1.556546
4.376465	1.556721
4.376953	1.556417
4.377441	1.556573
4.377930	1.556791
4.378418	1.556715
4.378906	1.556483
4.379395	1.556556
4.379883	1.556829
4.380371	1.556741
4.380859	1.556636
4.381348	1.556555
4.381836	1.556495
4.382324	1.556432
4.382812	1.556492
4.383301	1.556371
4.383789	1.556079
4.384277	1.556760
4.384766	1.556606
4.385254	1.556523
4.385742	1.556486
4.386230	1.556572
4.386719	1.556464
4.387207	1.556707
4.387695	1.556606
4.388184	1.556464
4.388672	1.556636
4.389160	1.556682
4.389648	1.556619
4.390137	1.556507
4.390625	1.557072
4.391113	1.556623
4.391602	1.556679
4.392090	1.556647
4.392578	1.556863
4.393066	1.556507
4.393555	1.556704
4.394043	1.556596
4.394531	1.556697
4.395020	1.556522
4.395508	1.556353
4.395996	1.556374
4.396484	1.556265
4.396973	1.556420
4.397461	1.556214
4.397949	1.556250
4.398437	1.556371
4.398926	1.556432
4.399414	1.556162
4.399902	1.556566
4.400391	1.556284
4.400879	1.556427
4.401367	1.556205
4.401855	1.556355
4.402344	1.556179
4.402832	1.556245
4.403320	1.556198
4.403809	1.556409
4.404297	1.556051
4.404785	1.556287
4.405273	1.555876
4.405762	1.556137
4.406250	1.556240
4.406738	1.555904
4.407227	1.556377
4.407715	1.556303
4.408203	1.556191
4.408691	1.556121
4.409180	1.556497
4.409668	1.556148
4.410156	1.556164
4.410645	1.556171
4.411133	1.556254
4.411621	1.556276
4.412109	1.556146
4.412598	1.556225
4.413086	1.556162
4.413574	1.556159
4.414062	1.556135
4.414551	1.556215
4.415039	1.556051
4.415527	1.556334
4.416016	1.556158
4.416504	1.556288
4.416992	1.556417
4.417480	1.556061
4.417969	1.556146
4.418457	1.556137
4.418945	1.556270
4.419434	1.556179
4.419922	1.556200
4.420410	1.556267
4.420898	1.556001
4.421387	1.556163
4.421875	1.556042
4.422363	1.556134
4.422852	1.556018
4.423340	1.556158
4.423828	1.556049
4.424316	1.556220
4.424805	1.556361
4.425293	1.556005
4.425781	1.556195
4.426270	1.556071
4.426758	1.556253
4.427246	1.556257
4.427734	1.556079
4.428223	1.556369
4.428711	1.556175
4.429199	1.556257
4.429687	1.556214
4.430176	1.556184
4.430664	1.556532
4.431152	1.556174
4.431641	1.556330
4.432129	1.556465
4.432617	1.556026
4.433105	1.556133
4.433594	1.556301
4.434082	1.556219
4.434570	1.556309
4.435059	1.556237
4.435547	1.556376
4.436035	1.556266
4.436523	1.555843
4.437012	1.556157
4.437500	1.556058
4.437988	1.556249
4.438477	1.556116
4.438965	1.556214
4.439453	1.556167
4.439941	1.556257
4.440430	1.556158
4.440918	1.555742
4.441406	1.556094
4.441895	1.556004
4.442383	1.555995
4.442871	1.555971
4.443359	1.556087
4.443848	1.556210
4.444336	1.556168
4.444824	1.556225
4.445312	1.556101
4.445801	1.556096
4.446289	1.556170
4.446777	1.556056
4.447266	1.556071
4.447754	1.556069
4.448242	1.556175
4.448730	1.556176
4.449219	1.556295
4.449707	1.555966
4.450195	1.556180
4.450684	1.556032
4.451172	1.556020
4.451660	1.556191
4.452148	1.555778
4.452637	1.556368
4.453125	1.556255
4.453613	1.556013
4.454102	1.556156
4.454590	1.556171
4.455078	1.556119
4.455566	1.555993
4.456055	1.556103
4.456543	1.556193
4.457031	1.556051
4.457520	1.555991
4.458008	1.556240
4.458496	1.556214
4.458984	1.556139
4.459473	1.556370
4.459961	1.556191
4.460449	1.556251
4.460937	1.556259
4.461426	1.556198
4.461914	1.556305
4.462402	1.556281
4.462891	1.556087
4.463379	1.556377
4.463867	1.555876
4.464355	1.556241
4.464844	1.556181
4.465332	1.556103
4.465820	1.556174
4.466309	1.556032
4.466797	1.556161
4.467285	1.556215
4.467773	1.556025
4.468262	1.556248
4.468750	1.556094
4.469238	1.556333
4.469727	1.556227
4.470215	1.556286
4.470703	1.556276
4.471191	1.556247
4.471680	1.556305
4.472168	1.556256
4.472656	1.556331
4.473145	1.556223
4.473633	1.556448
4.474121	1.556308
4.474609	1.556461
4.475098	1.556372
4.475586	1.556412
4.476074	1.556245
4.476562	1.556464
4.477051	1.556405
4.477539	1.556477
4.478027	1.556250
4.478516	1.556520
4.479004	1.556309
4.479492	1.556436
4.479980	1.556505
4.480469	1.556469
4.480957	1.556331
4.481445	1.556359
4.481934	1.556399
4.482422	1.556281
4.482910	1.556528
4.483398	1.556362
4.483887	1.556559
4.484375	1.556655
4.484863	1.556342
4.485352	1.556536
4.485840	1.556510
4.486328	1.556383
4.486816	1.556361
4.487305	1.556448
4.487793	1.556416
4.488281	1.556218
4.488770	1.556308
4.489258	1.556234
4.489746	1.556178
4.490234	1.556597
4.490723	1.556578
4.491211	1.556464
4.491699	1.556534
4.492187	1.556688
4.492676	1.556434
4.493164	1.556517
4.493652	1.556481
4.494141	1.556449
4.494629	1.556594
4.495117	1.556555
4.495605	1.556760
4.496094	1.556578
4.496582	1.556663
4.497070	1.556461
4.497559	1.556391
4.498047	1.556536
4.498535	1.556614
4.499023	1.556514
4.499512	1.556484
4.500000	1.556516
4.500488	1.556835
4.500977	1.556326
4.501465	1.556569
4.501953	1.556560
4.502441	1.556520
4.502930	1.556735
4.503418	1.556569
4.503906	1.556607
4.504395	1.556574
4.504883	1.556563
4.505371	1.556511
4.505859	1.556466
4.506348	1.556533
4.506836	1.556663
4.507324	1.556506
4.507812	1.556626
4.508301	1.556428
4.508789	1.556484
4.509277	1.556679
4.509766	1.556574
4.510254	1.556747
4.510742	1.556567
4.511230	1.556110
4.511719	1.556606
4.512207	1.556527
4.512695	1.556618
4.513184	1.556475
4.513672	1.556552
4.514160	1.556570
4.514648	1.556522
4.515137	1.556541
4.515625	1.556624
4.516113	1.556515
4.516602	1.556632
4.517090	1.556636
4.517578	1.556621
4.518066	1.556520
4.518555	1.556556
4.519043	1.556561
4.519531	1.556511
4.520020	1.556591
4.520508	1.556184
4.520996	1.556616
4.521484	1.556528
4.521973	1.556639
4.522461	1.556449
4.522949	1.556741
4.523437	1.556315
4.523926	1.556890
4.524414	1.556682
4.524902	1.556527
4.525391	1.556515
4.525879	1.556600
4.526367	1.556746
4.526855	1.556516
4.527344	1.556398
4.527832	1.556298
4.528320	1.556326
4.528809	1.556437
4.529297	1.556476
4.529785	1.556340
4.530273	1.556462
4.530762	1.556520
4.531250	1.556378
4.531738	1.556395
4.532227	1.556540
4.532715	1.556461
4.533203	1.556809
4.533691	1.556448
4.534180	1.556474
4.534668	1.556423
4.535156	1.556466
4.535645	1.556420
4.536133	1.556362
4.536621	1.556350
4.537109	1.556394
4.537598	1.556516
4.538086	1.556442
4.538574	1.556518
4.539062	1.556481
4.539551	1.556538
4.540039	1.556525
4.540527	1.556635
4.541016	1.556525
4.541504	1.556574
4.541992	1.556204
4.542480	1.556230
4.542969	1.556515
4.543457	1.556324
4.543945	1.556627
4.544434	1.556570
4.544922	1.556303
4.545410	1.556496
4.545898	1.556336
4.546387	1.556405
4.546875	1.556400
4.547363	1.556323
4.547852	1.556574
4.548340	1.556463
4.548828	1.556448
4.549316	1.556342
4.549805	1.556351
4.550293	1.556405
4.550781	1.556586
4.551270	1.556282
4.551758	1.556356
4.552246	1.556231
4.552734	1.556352
4.553223	1.556328
4.553711	1.556144
4.554199	1.556332
4.554687	1.556336
4.555176	1.556235
4.555664	1.556265
4.556152	1.556249
4.556641	1.556074
4.557129	1.556461
4.557617	1.555850
4.558105	1.556207
4.558594	1.556279
4.559082	1.556204
4.559570	1.556287
4.560059	1.556280
4.560547	1.556222
4.561035	1.556119
4.561523	1.556541
4.562012	1.556213
4.562500	1.556357
4.562988	1.556036
4.563477	1.556123
4.563965	1.556072
4.564453	1.555820
4.564941	1.556126
4.565430	1.556154
4.565918	1.556104
4.566406	1.555882
4.566895	1.556397
4.567383	1.556146
4.567871	1.556392
4.568359	1.556295
4.568848	1.556423
4.569336	1.556234
4.569824	1.556248
4.570312	1.556345
4.570801	1.556265
4.571289	1.556250
4.571777	1.556363
4.572266	1.556134
4.572754	1.556247
4.573242	1.555949
4.573730	1.556108
4.574219	1.555854
4.574707	1.555990
4.575195	1.556337
4.575684	1.556015
4.576172	1.556092
4.576660	1.556057
4.577148	1.556291
4.577637	1.556198
4.578125	1.556482
4.578613	1.556170
4.579102	1.556286
4.579590	1.556289
4.580078	1.556552
4.580566	1.556315
4.581055	1.556511
4.581543	1.556311
4.582031	1.556413
4.582520	1.556384
4.583008	1.556479
4.583496	1.556247
4.583984	1.556298
4.584473	1.556565
4.584961	1.556376
4.585449	1.556467
4.585937	1.556387
4.586426	1.556555
4.586914	1.556376
4.587402	1.556737
4.587891	1.556392
4.588379	1.556638
4.588867	1.556591
4.589355	1.556560
4.589844	1.556688
4.590332	1.556655
4.590820	1.556701
4.591309	1.556621
4.591797	1.556633
4.592285	1.556564
4.592773	1.556629
4.593262	1.556782
4.593750	1.556572
4.594238	1.556714
4.594727	1.556736
4.595215	1.556520
4.595703	1.556689
4.596191	1.556613
4.596680	1.556712
4.597168	1.556686
4.597656	1.556612
4.598145	1.556907
4.598633	1.556763
4.599121	1.556904
4.599609	1.556690
4.600098	1.556843
4.600586	1.556901
4.601074	1.556831
4.601562	1.556827
4.602051	1.556763
4.602539	1.556654
4.603027	1.556771
4.603516	1.556414
4.604004	1.556560
4.604492	1.556892
4.604980	1.556656
4.605469	1.556516
4.605957	1.556767
4.606445	1.556708
4.606934	1.556843
4.607422	1.556861
4.607910	1.556856
4.608398	1.556965
4.608887	1.556853
4.609375	1.556988
4.609863	1.556832
4.610352	1.557043
4.610840	1.557028
4.611328	1.557079
4.611816	1.556907
4.612305	1.557041
4.612793	1.556751
4.613281	1.556894
4.613770	1.556704
4.614258	1.556931
4.614746	1.556901
4.615234	1.556915
4.615723	1.556812
4.616211	1.556987
4.616699	1.556698
4.617187	1.556918
4.617676	1.557033
4.618164	1.556850
4.618652	1.556964
4.619141	1.556776
4.619629	1.556862
4.620117	1.556720
4.620605	1.556721
4.621094	1.556693
4.621582	1.556892
4.622070	1.556688
4.622559	1.557095
4.623047	1.556989
4.623535	1.556707
4.624023	1.556950
4.624512	1.556961
4.625000	1.556987
4.625488	1.556836
4.625977	1.556891
4.626465	1.557067
4.626953	1.557006
4.627441	1.556913
4.627930	1.557172
4.628418	1.557096
4.628906	1.556968
4.629395	1.556912
4.629883	1.557062
4.630371	1.557160
4.630859	1.556842
4.631348	1.556879
4.631836	1.557180
4.632324	1.557034
4.632812	1.557081
4.633301	1.557127
4.633789	1.556777
4.634277	1.557082
4.634766	1.557169
4.635254	1.557061
4.635742	1.557055
4.636230	1.557114
4.636719	1.557001
4.637207	1.557275
4.637695	1.557081
4.638184	1.557216
4.638672	1.557113
4.639160	1.556892
4.639648	1.557156
4.640137	1.557089
4.640625	1.557140
4.641113	1.556989
4.641602	1.557246
4.642090	1.557283
4.642578	1.557133
4.643066	1.557218
4.643555	1.557077
4.644043	1.557007
4.644531	1.556868
4.645020	1.557211
4.645508	1.557132
4.645996	1.557200
4.646484	1.557300
4.646973	1.557182
4.647461	1.557091
4.647949	1.557061
4.648437	1.557224
4.648926	1.556965
4.649414	1.556901
4.649902	1.557255
4.650391	1.557176
4.650879	1.557085
4.651367	1.557063
4.651855	1.557158
4.652344	1.557023
4.652832	1.557139
4.653320	1.557005
4.653809	1.556984
4.654297	1.556944
4.654785	1.556806
4.655273	1.556917
4.655762	1.556808
4.656250	1.557184
4.656738	1.556752
4.657227	1.556897
4.657715	1.557023
4.658203	1.556890
4.658691	1.556898
4.659180	1.556788
4.659668	1.556819
4.660156	1.556866
4.660645	1.556940
4.661133	1.556870
4.661621	1.556960
4.662109	1.556809
4.662598	1.557025
4.663086	1.556938
4.663574	1.556779
4.664062	1.556711
4.664551	1.556698
4.665039	1.556821
4.665527	1.556893
4.666016	1.556709
4.666504	1.556884
4.666992	1.556704
4.667480	1.556726
4.667969	1.556706
4.668457	1.556585
4.668945	1.556616
4.669434	1.556639
4.669922	1.556707
4.670410	1.556707
4.670898	1.556769
4.671387	1.556800
4.671875	1.556930
4.672363	1.556760
4.672852	1.556782
4.673340	1.556765
4.673828	1.556620
4.674316	1.557001
4.674805	1.556915
4.675293	1.556726
4.675781	1.556818
4.676270	1.556874
4.676758	1.556923
4.677246	1.556885
4.677734	1.556921
4.678223	1.556832
4.678711	1.556780
4.679199	1.556891
4.679687	1.556736
4.680176	1.557027
4.680664	1.556726
4.681152	1.556641
4.681641	1.556934
4.682129	1.556745
4.682617	1.556782
4.683105	1.556671
4.683594	1.556993
4.684082	1.556713
4.684570	1.557115
4.685059	1.556931
4.685547	1.556958
4.686035	1.557050
4.686523	1.556597
4.687012	1.557040
4.687500	1.556741
4.687988	1.556780
4.688477	1.556840
4.688965	1.556927
4.689453	1.556859
4.689941	1.556987
4.690430	1.557090
4.690918	1.557052
4.691406	1.556979
4.691895	1.556968
4.692383	1.556953
4.692871	1.557184
4.693359	1.557027
4.693848	1.556932
4.694336	1.556902
4.694824	1.557068
4.695312	1.556889
4.695801	1.557037
4.696289	1.556782
4.696777	1.556959
4.697266	1.556760
4.697754	1.556823
4.698242	1.556702
4.698730	1.556616
4.699219	1.556941
4.699707	1.556778
4.700195	1.556711
4.700684	1.556564
4.701172	1.556489
4.701660	1.556639
4.702148	1.556329
4.702637	1.556657
4.703125	1.556810
4.703613	1.556608
4.704102	1.556722
4.704590	1.556420
4.705078	1.556771
4.705566	1.556428
4.706055	1.556665
4.706543	1.556722
4.707031	1.556697
4.707520	1.556632
4.708008	1.556542
4.708496	1.556648
4.708984	1.556696
4.709473	1.556798
4.709961	1.556654
4.710449	1.556732
4.710937	1.556464
4.711426	1.556616
4.711914	1.556575
4.712402	1.556477
4.712891	1.556730
4.713379	1.556596
4.713867	1.556533
4.714355	1.556635
4.714844	1.556442
4.715332	1.556774
4.715820	1.556240
4.716309	1.556715
4.716797	1.556923
4.717285	1.556761
4.717773	1.556654
4.718262	1.556513
4.718750	1.556767
4.719238	1.556636
4.719727	1.556636
4.720215	1.556570
4.720703	1.556785
4.721191	1.556555
4.721680	1.556631
4.722168	1.556784
4.722656	1.556829
4.723145	1.556968
4.723633	1.556682
4.724121	1.556802
4.724609	1.556607
4.725098	1.556703
4.725586	1.556764
4.726074	1.556842
4.726562	1.556777
4.727051	1.557035
4.727539	1.556690
4.728027	1.556929
4.728516	1.556795
4.729004	1.556796
4.729492	1.556790
4.729980	1.556934
4.730469	1.556970
4.730957	1.556766
4.731445	1.556863
4.731934	1.556938
4.732422	1.556820
4.732910	1.556669
4.733398	1.556828
4.733887	1.556437
4.734375	1.556754
4.734863	1.556666
4.735352	1.556840
4.735840	1.556973
4.736328	1.556723
4.736816	1.556763
4.737305	1.556718
4.737793	1.556954
4.738281	1.556683
4.738770	1.556704
4.739258	1.556668
4.739746	1.556705
4.740234	1.556814
4.740723	1.556644
4.741211	1.556607
4.741699	1.556542
4.742187	1.556811
4.742676	1.556717
4.743164	1.556733
4.743652	1.556496
4.744141	1.556478
4.744629	1.556387
4.745117	1.556395
4.745605	1.556561
4.746094	1.556425
4.746582	1.556517
4.747070	1.556455
4.747559	1.556537
4.748047	1.556447
4.748535	1.556576
4.749023	1.556269
4.749512	1.556308
4.750000	1.556588
4.750488	1.556483
4.750977	1.556465
4.751465	1.556586
4.751953	1.556391
4.752441	1.556657
4.752930	1.556230
4.753418	1.556490
4.753906	1.556269
4.754395	1.556176
4.754883	1.556473
4.755371	1.556607
4.755859	1.556310
4.756348	1.556308
4.756836	1.556624
4.757324	1.556472
4.757812	1.556754
4.758301	1.556438
4.758789	1.556447
4.759277	1.556514
4.759766	1.556400
4.760254	1.556669
4.760742	1.556404
4.761230	1.556561
4.761719	1.556641
4.762207	1.556052
4.762695	1.556580
4.763184	1.556179
4.763672	1.556303
4.764160	1.556352
4.764648	1.556416
4.765137	1.556404
4.765625	1.556389
4.766113	1.556235
4.766602	1.556433
4.767090	1.556501
4.767578	1.556301
4.768066	1.556449
4.768555	1.556162
4.769043	1.556417
4.769531	1.556422
4.770020	1.556336
4.770508	1.556538
4.770996	1.556511
4.771484	1.556711
4.771973	1.556565
4.772461	1.556753
4.772949	1.556345
4.773437	1.556387
4.773926	1.556466
4.774414	1.556385
4.774902	1.556524
4.775391	1.556291
4.775879	1.556486
4.776367	1.556393
4.776855	1.556295
4.777344	1.556309
4.777832	1.556463
4.778320	1.556343
4.778809	1.556391
4.779297	1.556460
4.779785	1.556176
4.780273	1.556597
4.780762	1.556644
4.781250	1.556428
4.781738	1.556519
4.782227	1.556492
4.782715	1.556574
4.783203	1.556251
4.783691	1.556374
4.784180	1.556756
4.784668	1.556566
4.785156	1.556680
4.785645	1.556400
4.786133	1.556595
4.786621	1.556345
4.787109	1.556450
4.787598	1.556448
4.788086	1.556644
4.788574	1.556434
4.789062	1.556412
4.789551	1.556334
4.790039	1.556579
4.790527	1.556578
4.791016	1.556663
4.791504	1.556728
4.791992	1.556613
4.792480	1.556513
4.792969	1.556521
4.793457	1.556542
4.793945	1.556531
4.794434	1.556662
4.794922	1.556676
4.795410	1.556574
4.795898	1.556565
4.796387	1.556376
4.796875	1.556687
4.797363	1.556677
4.797852	1.556586
4.798340	1.556574
4.798828	1.556492
4.799316	1.556504
4.799805	1.556384
4.800293	1.556687
4.800781	1.556674
4.801270	1.556591
4.801758	1.556658
4.802246	1.556852
4.802734	1.556622
4.803223	1.556586
4.803711	1.556668
4.804199	1.556457
4.804687	1.556629
4.805176	1.556599
4.805664	1.556596
4.806152	1.556589
4.806641	1.556479
4.807129	1.556819
4.807617	1.556207
4.808105	1.556423
4.808594	1.556375
4.809082	1.556470
4.809570	1.556639
4.810059	1.556468
4.810547	1.556681
4.811035	1.556553
4.811523	1.556556
4.812012	1.556598
4.812500	1.556409
4.812988	1.556649
4.813477	1.556373
4.813965	1.556581
4.814453	1.556670
4.814941	1.556528
4.815430	1.556513
4.815918	1.556384
4.816406	1.556553
4.816895	1.556197
4.817383	1.556450
4.817871	1.556461
4.818359	1.556350
4.818848	1.556351
4.819336	1.556572
4.819824	1.556498
4.820312	1.556500
4.820801	1.556578
4.821289	1.556541
4.821777	1.556760
4.822266	1.556209
4.822754	1.556603
4.823242	1.556382
4.823730	1.556385
4.824219	1.556314
4.824707	1.556253
4.825195	1.556517
4.825684	1.556527
4.826172	1.556408
4.826660	1.556419
4.827148	1.556173
4.827637	1.556339
4.828125	1.556380
4.828613	1.556379
4.829102	1.556187
4.829590	1.556419
4.830078	1.556466
4.830566	1.556303
4.831055	1.556336
4.831543	1.556574
4.832031	1.556472
4.832520	1.556402
4.833008	1.556319
4.833496	1.556485
4.833984	1.556053
4.834473	1.556269
4.834961	1.556160
4.835449	1.555932
4.835937	1.556026
4.836426	1.556086
4.836914	1.556052
4.837402	1.556057
4.837891	1.556223
4.838379	1.556089
4.838867	1.556210
4.839355	1.555949
4.839844	1.556038
4.840332	1.556214
4.840820	1.555871
4.841309	1.555894
4.841797	1.556014
4.842285	1.556157
4.842773	1.555918
4.843262	1.556263
4.843750	1.556043
4.844238	1.556374
4.844727	1.556240
4.845215	1.556134
4.845703	1.555929
4.846191	1.556134
4.846680	1.556073
4.847168	1.556041
4.847656	1.556062
4.848145	1.556087
4.848633	1.556077
4.849121	1.555969
4.849609	1.555855
4.850098	1.556131
4.850586	1.555987
4.851074	1.555853
4.851562	1.556340
4.852051	1.556024
4.852539	1.556102
4.853027	1.555978
4.853516	1.555706
4.854004	1.555886
4.854492	1.556226
4.854980	1.556007
4.855469	1.555924
4.855957	1.555930
4.856445	1.555982
4.856934	1.556076
4.857422	1.555997
4.857910	1.555988
4.858398	1.556081
4.858887	1.556306
4.859375	1.556095
4.859863	1.556156
4.860352	1.556065
4.860840	1.556065
4.861328	1.556031
4.861816	1.556118
4.862305	1.555885
4.862793	1.555856
4.863281	1.555800
4.863770	1.555968
4.864258	1.555933
4.864746	1.555767
4.865234	1.556198
4.865723	1.556026
4.866211	1.556037
4.866699	1.556032
4.867187	1.555926
4.867676	1.556034
4.868164	1.556092
4.868652	1.556126
4.869141	1.555868
4.869629	1.556026
4.870117	1.556076
4.870605	1.555873
4.871094	1.556065
4.871582	1.555988
4.872070	1.556081
4.872559	1.555774
4.873047	1.555965
4.873535	1.556037
4.874023	1.555852
4.874512	1.555885
4.875000	1.556015
4.875488	1.556071
4.875977	1.555885
4.876465	1.556049
4.876953	1.555805
4.877441	1.555964
4.877930	1.555985
4.878418	1.556064
4.878906	1.556039
4.879395	1.556085
4.879883	1.556300
4.880371	1.556036
4.880859	1.556231
4.881348	1.555951
4.881836	1.556052
4.882324	1.556137

