LabVIEW Measurement	
Writer_Version	2
Reader_Version	2
Separator	Tab
Decimal_Separator	.
Multi_Headings	Yes
X_Columns	One
Time_Pref	Absolute
Operator	W-Tunnel
Date	2024/05/15
Time	15:43:47.0002361812495430154
***End_of_Header***	
	
Channels	1	
Samples	10000	
Date	2024/05/15	
Time	15:47:54.6596082812497193905	
Y_Unit_Label	Volts	
X_Dimension	Time	
X0	0.0000000000000000E+0	
Delta_X	0.000488	
***End_of_Header***		
X_Value	Voltage	Comment
0.000000	1.665090
0.000488	1.665074
0.000977	1.665067
0.001465	1.665180
0.001953	1.665216
0.002441	1.665141
0.002930	1.665022
0.003418	1.664910
0.003906	1.665294
0.004395	1.665092
0.004883	1.665150
0.005371	1.664971
0.005859	1.665249
0.006348	1.665202
0.006836	1.665161
0.007324	1.664790
0.007812	1.664861
0.008301	1.665116
0.008789	1.665153
0.009277	1.665235
0.009766	1.664906
0.010254	1.665034
0.010742	1.665192
0.011230	1.664956
0.011719	1.664977
0.012207	1.664954
0.012695	1.664793
0.013184	1.665162
0.013672	1.665288
0.014160	1.665111
0.014648	1.664867
0.015137	1.664928
0.015625	1.665164
0.016113	1.665249
0.016602	1.665020
0.017090	1.664950
0.017578	1.665233
0.018066	1.664896
0.018555	1.665124
0.019043	1.664864
0.019531	1.664626
0.020020	1.665090
0.020508	1.665100
0.020996	1.665233
0.021484	1.664917
0.021973	1.664957
0.022461	1.664889
0.022949	1.664959
0.023437	1.665128
0.023926	1.664562
0.024414	1.664902
0.024902	1.665028
0.025391	1.664894
0.025879	1.664917
0.026367	1.665013
0.026855	1.664720
0.027344	1.664620
0.027832	1.665032
0.028320	1.665071
0.028809	1.664922
0.029297	1.664704
0.029785	1.664862
0.030273	1.665003
0.030762	1.664931
0.031250	1.665007
0.031738	1.664867
0.032227	1.664910
0.032715	1.665075
0.033203	1.665016
0.033691	1.664734
0.034180	1.664945
0.034668	1.665022
0.035156	1.664913
0.035645	1.665196
0.036133	1.665047
0.036621	1.664923
0.037109	1.664911
0.037598	1.665125
0.038086	1.664745
0.038574	1.664792
0.039062	1.664800
0.039551	1.664849
0.040039	1.664965
0.040527	1.664837
0.041016	1.664962
0.041504	1.664792
0.041992	1.664913
0.042480	1.664925
0.042969	1.664912
0.043457	1.664812
0.043945	1.664775
0.044434	1.665018
0.044922	1.665035
0.045410	1.664875
0.045898	1.664856
0.046387	1.664792
0.046875	1.665338
0.047363	1.665103
0.047852	1.664994
0.048340	1.664856
0.048828	1.665255
0.049316	1.664951
0.049805	1.665307
0.050293	1.665302
0.050781	1.665081
0.051270	1.665377
0.051758	1.665275
0.052246	1.665056
0.052734	1.664965
0.053223	1.665284
0.053711	1.665008
0.054199	1.665289
0.054687	1.664932
0.055176	1.665225
0.055664	1.665060
0.056152	1.665232
0.056641	1.665321
0.057129	1.665401
0.057617	1.665005
0.058105	1.665218
0.058594	1.665437
0.059082	1.665261
0.059570	1.665251
0.060059	1.665088
0.060547	1.665299
0.061035	1.665204
0.061523	1.665375
0.062012	1.665651
0.062500	1.665228
0.062988	1.665381
0.063477	1.665609
0.063965	1.665733
0.064453	1.665439
0.064941	1.665449
0.065430	1.665387
0.065918	1.665655
0.066406	1.665620
0.066895	1.665617
0.067383	1.665468
0.067871	1.665501
0.068359	1.665921
0.068848	1.665590
0.069336	1.665422
0.069824	1.665476
0.070312	1.665734
0.070801	1.665775
0.071289	1.665694
0.071777	1.665485
0.072266	1.665489
0.072754	1.665839
0.073242	1.665825
0.073730	1.665751
0.074219	1.665748
0.074707	1.665601
0.075195	1.665816
0.075684	1.665833
0.076172	1.666033
0.076660	1.665681
0.077148	1.665482
0.077637	1.665833
0.078125	1.665771
0.078613	1.665769
0.079102	1.665477
0.079590	1.665419
0.080078	1.665780
0.080566	1.665545
0.081055	1.665732
0.081543	1.665542
0.082031	1.665607
0.082520	1.665688
0.083008	1.665561
0.083496	1.665613
0.083984	1.665598
0.084473	1.665351
0.084961	1.665625
0.085449	1.665940
0.085937	1.665814
0.086426	1.665525
0.086914	1.665617
0.087402	1.665576
0.087891	1.665816
0.088379	1.665331
0.088867	1.665258
0.089355	1.665504
0.089844	1.665565
0.090332	1.665265
0.090820	1.665348
0.091309	1.665289
0.091797	1.665396
0.092285	1.665766
0.092773	1.665230
0.093262	1.665251
0.093750	1.665242
0.094238	1.665388
0.094727	1.665395
0.095215	1.665361
0.095703	1.665261
0.096191	1.665281
0.096680	1.665364
0.097168	1.665309
0.097656	1.665345
0.098145	1.665125
0.098633	1.665218
0.099121	1.665144
0.099609	1.665193
0.100098	1.665022
0.100586	1.664859
0.101074	1.664902
0.101562	1.664945
0.102051	1.665139
0.102539	1.664986
0.103027	1.664967
0.103516	1.664857
0.104004	1.665195
0.104492	1.665300
0.104980	1.665103
0.105469	1.665086
0.105957	1.665033
0.106445	1.665280
0.106934	1.665005
0.107422	1.665041
0.107910	1.664778
0.108398	1.665033
0.108887	1.665244
0.109375	1.664912
0.109863	1.664721
0.110352	1.664838
0.110840	1.664695
0.111328	1.664837
0.111816	1.664916
0.112305	1.664840
0.112793	1.664796
0.113281	1.664957
0.113770	1.665063
0.114258	1.664988
0.114746	1.664949
0.115234	1.664817
0.115723	1.665085
0.116211	1.665024
0.116699	1.665158
0.117187	1.664941
0.117676	1.664844
0.118164	1.664944
0.118652	1.664906
0.119141	1.664750
0.119629	1.664624
0.120117	1.664673
0.120605	1.664802
0.121094	1.664798
0.121582	1.664698
0.122070	1.664788
0.122559	1.664582
0.123047	1.664802
0.123535	1.664923
0.124023	1.664794
0.124512	1.664482
0.125000	1.664733
0.125488	1.664752
0.125977	1.664907
0.126465	1.664856
0.126953	1.664727
0.127441	1.664853
0.127930	1.664990
0.128418	1.665013
0.128906	1.664957
0.129395	1.664806
0.129883	1.664848
0.130371	1.665062
0.130859	1.665032
0.131348	1.664620
0.131836	1.664693
0.132324	1.664664
0.132812	1.664639
0.133301	1.664742
0.133789	1.664670
0.134277	1.664865
0.134766	1.664793
0.135254	1.665083
0.135742	1.664890
0.136230	1.664762
0.136719	1.664622
0.137207	1.664829
0.137695	1.665155
0.138184	1.664988
0.138672	1.665018
0.139160	1.664946
0.139648	1.664773
0.140137	1.665034
0.140625	1.664926
0.141113	1.664947
0.141602	1.664799
0.142090	1.664962
0.142578	1.665326
0.143066	1.664899
0.143555	1.664798
0.144043	1.664952
0.144531	1.665173
0.145020	1.665255
0.145508	1.664996
0.145996	1.665253
0.146484	1.665039
0.146973	1.664989
0.147461	1.665245
0.147949	1.664949
0.148437	1.664992
0.148926	1.665135
0.149414	1.665307
0.149902	1.665237
0.150391	1.665185
0.150879	1.665105
0.151367	1.665302
0.151855	1.665193
0.152344	1.665536
0.152832	1.665158
0.153320	1.665648
0.153809	1.665348
0.154297	1.665640
0.154785	1.665507
0.155273	1.665656
0.155762	1.665412
0.156250	1.665568
0.156738	1.665596
0.157227	1.665726
0.157715	1.665553
0.158203	1.665485
0.158691	1.665661
0.159180	1.665679
0.159668	1.665591
0.160156	1.665559
0.160645	1.665368
0.161133	1.665423
0.161621	1.665758
0.162109	1.665659
0.162598	1.665477
0.163086	1.665449
0.163574	1.665726
0.164062	1.665842
0.164551	1.665679
0.165039	1.665684
0.165527	1.665566
0.166016	1.665928
0.166504	1.665968
0.166992	1.665894
0.167480	1.665622
0.167969	1.665492
0.168457	1.665924
0.168945	1.666089
0.169434	1.665778
0.169922	1.665600
0.170410	1.665748
0.170898	1.666206
0.171387	1.665463
0.171875	1.665642
0.172363	1.665431
0.172852	1.665481
0.173340	1.665684
0.173828	1.665761
0.174316	1.665520
0.174805	1.665499
0.175293	1.665477
0.175781	1.665808
0.176270	1.665952
0.176758	1.665380
0.177246	1.665474
0.177734	1.665684
0.178223	1.665722
0.178711	1.665700
0.179199	1.665524
0.179687	1.665128
0.180176	1.665451
0.180664	1.665595
0.181152	1.665618
0.181641	1.665243
0.182129	1.665380
0.182617	1.665410
0.183105	1.665757
0.183594	1.665567
0.184082	1.665557
0.184570	1.665545
0.185059	1.665513
0.185547	1.665526
0.186035	1.665828
0.186523	1.665579
0.187012	1.665078
0.187500	1.665525
0.187988	1.665607
0.188477	1.665368
0.188965	1.665266
0.189453	1.665115
0.189941	1.665287
0.190430	1.665034
0.190918	1.665251
0.191406	1.664887
0.191895	1.664980
0.192383	1.664944
0.192871	1.665110
0.193359	1.664923
0.193848	1.664967
0.194336	1.664984
0.194824	1.664900
0.195312	1.665232
0.195801	1.665138
0.196289	1.664962
0.196777	1.664897
0.197266	1.665152
0.197754	1.665117
0.198242	1.665131
0.198730	1.664990
0.199219	1.664893
0.199707	1.665141
0.200195	1.665121
0.200684	1.664768
0.201172	1.664913
0.201660	1.664789
0.202148	1.664906
0.202637	1.664753
0.203125	1.664830
0.203613	1.664564
0.204102	1.664934
0.204590	1.664875
0.205078	1.664900
0.205566	1.664870
0.206055	1.664826
0.206543	1.664884
0.207031	1.664955
0.207520	1.664866
0.208008	1.664748
0.208496	1.664574
0.208984	1.664976
0.209473	1.664866
0.209961	1.664655
0.210449	1.664684
0.210937	1.664781
0.211426	1.664536
0.211914	1.664773
0.212402	1.664517
0.212891	1.664585
0.213379	1.664489
0.213867	1.664427
0.214355	1.664885
0.214844	1.664599
0.215332	1.664566
0.215820	1.664459
0.216309	1.664565
0.216797	1.664700
0.217285	1.664707
0.217773	1.664407
0.218262	1.664543
0.218750	1.664655
0.219238	1.664771
0.219727	1.664575
0.220215	1.664545
0.220703	1.664568
0.221191	1.664771
0.221680	1.664839
0.222168	1.664739
0.222656	1.664690
0.223145	1.664717
0.223633	1.665047
0.224121	1.665063
0.224609	1.664982
0.225098	1.664867
0.225586	1.665049
0.226074	1.665237
0.226562	1.665202
0.227051	1.664743
0.227539	1.664824
0.228027	1.664955
0.228516	1.665062
0.229004	1.664908
0.229492	1.664709
0.229980	1.664780
0.230469	1.664708
0.230957	1.664866
0.231445	1.665116
0.231934	1.664841
0.232422	1.664850
0.232910	1.664975
0.233398	1.665313
0.233887	1.665309
0.234375	1.665346
0.234863	1.665096
0.235352	1.665414
0.235840	1.665648
0.236328	1.665407
0.236816	1.665520
0.237305	1.665332
0.237793	1.665599
0.238281	1.665764
0.238770	1.665570
0.239258	1.665796
0.239746	1.665030
0.240234	1.665573
0.240723	1.665493
0.241211	1.665245
0.241699	1.665275
0.242187	1.665295
0.242676	1.665576
0.243164	1.665593
0.243652	1.665301
0.244141	1.665526
0.244629	1.665573
0.245117	1.665501
0.245605	1.665842
0.246094	1.665429
0.246582	1.665545
0.247070	1.665409
0.247559	1.665736
0.248047	1.665542
0.248535	1.665634
0.249023	1.665199
0.249512	1.665340
0.250000	1.665854
0.250488	1.665626
0.250977	1.665640
0.251465	1.665424
0.251953	1.665668
0.252441	1.665515
0.252930	1.665960
0.253418	1.665438
0.253906	1.665591
0.254395	1.665598
0.254883	1.665599
0.255371	1.665563
0.255859	1.665391
0.256348	1.665352
0.256836	1.665388
0.257324	1.665512
0.257812	1.665371
0.258301	1.665234
0.258789	1.665398
0.259277	1.665233
0.259766	1.665626
0.260254	1.665625
0.260742	1.665320
0.261230	1.665429
0.261719	1.665465
0.262207	1.665697
0.262695	1.665333
0.263184	1.665263
0.263672	1.665504
0.264160	1.665551
0.264648	1.665551
0.265137	1.665488
0.265625	1.665265
0.266113	1.665565
0.266602	1.665620
0.267090	1.665481
0.267578	1.665657
0.268066	1.665309
0.268555	1.665288
0.269043	1.665432
0.269531	1.665427
0.270020	1.665437
0.270508	1.665218
0.270996	1.665390
0.271484	1.665435
0.271973	1.665330
0.272461	1.665219
0.272949	1.665197
0.273437	1.665279
0.273926	1.665440
0.274414	1.665337
0.274902	1.665377
0.275391	1.664980
0.275879	1.665232
0.276367	1.665313
0.276855	1.665186
0.277344	1.664932
0.277832	1.665125
0.278320	1.664997
0.278809	1.665121
0.279297	1.665099
0.279785	1.664920
0.280273	1.665247
0.280762	1.664866
0.281250	1.665189
0.281738	1.664786
0.282227	1.664906
0.282715	1.664809
0.283203	1.664938
0.283691	1.664892
0.284180	1.664895
0.284668	1.664791
0.285156	1.664758
0.285645	1.664944
0.286133	1.664859
0.286621	1.665070
0.287109	1.664693
0.287598	1.664768
0.288086	1.664853
0.288574	1.664816
0.289062	1.664915
0.289551	1.664716
0.290039	1.664627
0.290527	1.664816
0.291016	1.664627
0.291504	1.664748
0.291992	1.664609
0.292480	1.664789
0.292969	1.664626
0.293457	1.664881
0.293945	1.664494
0.294434	1.664720
0.294922	1.664680
0.295410	1.664632
0.295898	1.664919
0.296387	1.664831
0.296875	1.664614
0.297363	1.664805
0.297852	1.665072
0.298340	1.664674
0.298828	1.664764
0.299316	1.664468
0.299805	1.664646
0.300293	1.664989
0.300781	1.664755
0.301270	1.665052
0.301758	1.664798
0.302246	1.665000
0.302734	1.664892
0.303223	1.665053
0.303711	1.664751
0.304199	1.664796
0.304687	1.664789
0.305176	1.664850
0.305664	1.664956
0.306152	1.664905
0.306641	1.664944
0.307129	1.664890
0.307617	1.665226
0.308105	1.665164
0.308594	1.664914
0.309082	1.664665
0.309570	1.664825
0.310059	1.665142
0.310547	1.664964
0.311035	1.664780
0.311523	1.664934
0.312012	1.664588
0.312500	1.664823
0.312988	1.665094
0.313477	1.664917
0.313965	1.664792
0.314453	1.664865
0.314941	1.665275
0.315430	1.665189
0.315918	1.664776
0.316406	1.665016
0.316895	1.664967
0.317383	1.665117
0.317871	1.664956
0.318359	1.664894
0.318848	1.665222
0.319336	1.664953
0.319824	1.665060
0.320312	1.665021
0.320801	1.664962
0.321289	1.665240
0.321777	1.665179
0.322266	1.665261
0.322754	1.665027
0.323242	1.665099
0.323730	1.664940
0.324219	1.665315
0.324707	1.665173
0.325195	1.665148
0.325684	1.664983
0.326172	1.665238
0.326660	1.665262
0.327148	1.665252
0.327637	1.665251
0.328125	1.665107
0.328613	1.665374
0.329102	1.665503
0.329590	1.664990
0.330078	1.665069
0.330566	1.664803
0.331055	1.665188
0.331543	1.665228
0.332031	1.665315
0.332520	1.665244
0.333008	1.665342
0.333496	1.665498
0.333984	1.665547
0.334473	1.665430
0.334961	1.665205
0.335449	1.665318
0.335937	1.665472
0.336426	1.665481
0.336914	1.665683
0.337402	1.665315
0.337891	1.665209
0.338379	1.665499
0.338867	1.665672
0.339355	1.665124
0.339844	1.665194
0.340332	1.665238
0.340820	1.665580
0.341309	1.665453
0.341797	1.665503
0.342285	1.665436
0.342773	1.665260
0.343262	1.665767
0.343750	1.665575
0.344238	1.665413
0.344727	1.665492
0.345215	1.665329
0.345703	1.665638
0.346191	1.665657
0.346680	1.665540
0.347168	1.665760
0.347656	1.665274
0.348145	1.665484
0.348633	1.665334
0.349121	1.665108
0.349609	1.665241
0.350098	1.665279
0.350586	1.665562
0.351074	1.665404
0.351562	1.665407
0.352051	1.665055
0.352539	1.665320
0.353027	1.665354
0.353516	1.665171
0.354004	1.665119
0.354492	1.665006
0.354980	1.665499
0.355469	1.665332
0.355957	1.665205
0.356445	1.665171
0.356934	1.664808
0.357422	1.664967
0.357910	1.665162
0.358398	1.665116
0.358887	1.664666
0.359375	1.665009
0.359863	1.665202
0.360352	1.665193
0.360840	1.664935
0.361328	1.665147
0.361816	1.665042
0.362305	1.665581
0.362793	1.665362
0.363281	1.665136
0.363770	1.664913
0.364258	1.665009
0.364746	1.665191
0.365234	1.664928
0.365723	1.664835
0.366211	1.664752
0.366699	1.664948
0.367187	1.664782
0.367676	1.665180
0.368164	1.664734
0.368652	1.664823
0.369141	1.664897
0.369629	1.664967
0.370117	1.664906
0.370605	1.664812
0.371094	1.664782
0.371582	1.665149
0.372070	1.665035
0.372559	1.664818
0.373047	1.664846
0.373535	1.664696
0.374023	1.664827
0.374512	1.665005
0.375000	1.664876
0.375488	1.664873
0.375977	1.664811
0.376465	1.665005
0.376953	1.664825
0.377441	1.665011
0.377930	1.664667
0.378418	1.664736
0.378906	1.665108
0.379395	1.664647
0.379883	1.664719
0.380371	1.664501
0.380859	1.664634
0.381348	1.664961
0.381836	1.664704
0.382324	1.664916
0.382812	1.664681
0.383301	1.664798
0.383789	1.664840
0.384277	1.665100
0.384766	1.664829
0.385254	1.664892
0.385742	1.664870
0.386230	1.665001
0.386719	1.664998
0.387207	1.664818
0.387695	1.664774
0.388184	1.664796
0.388672	1.665074
0.389160	1.664872
0.389648	1.664882
0.390137	1.664682
0.390625	1.664985
0.391113	1.665132
0.391602	1.664985
0.392090	1.664710
0.392578	1.664588
0.393066	1.664917
0.393555	1.664865
0.394043	1.664915
0.394531	1.664574
0.395020	1.664769
0.395508	1.664704
0.395996	1.665142
0.396484	1.664906
0.396973	1.664923
0.397461	1.664909
0.397949	1.665135
0.398437	1.665086
0.398926	1.664947
0.399414	1.664846
0.399902	1.664886
0.400391	1.665146
0.400879	1.664936
0.401367	1.665017
0.401855	1.664631
0.402344	1.664862
0.402832	1.664914
0.403320	1.664995
0.403809	1.664775
0.404297	1.664791
0.404785	1.664726
0.405273	1.665005
0.405762	1.665100
0.406250	1.665020
0.406738	1.664931
0.407227	1.664844
0.407715	1.665141
0.408203	1.665005
0.408691	1.664850
0.409180	1.664853
0.409668	1.665085
0.410156	1.665066
0.410645	1.665418
0.411133	1.665198
0.411621	1.664978
0.412109	1.665019
0.412598	1.664981
0.413086	1.665282
0.413574	1.664621
0.414062	1.664688
0.414551	1.665128
0.415039	1.665110
0.415527	1.665219
0.416016	1.664969
0.416504	1.665114
0.416992	1.664955
0.417480	1.665036
0.417969	1.665294
0.418457	1.665292
0.418945	1.665078
0.419434	1.665157
0.419922	1.665468
0.420410	1.665157
0.420898	1.665125
0.421387	1.665130
0.421875	1.665310
0.422363	1.665438
0.422852	1.665277
0.423340	1.664977
0.423828	1.665225
0.424316	1.665081
0.424805	1.665385
0.425293	1.665049
0.425781	1.664881
0.426270	1.665223
0.426758	1.665341
0.427246	1.665163
0.427734	1.665294
0.428223	1.665312
0.428711	1.665098
0.429199	1.665633
0.429687	1.665250
0.430176	1.665167
0.430664	1.664838
0.431152	1.665180
0.431641	1.665149
0.432129	1.665223
0.432617	1.664892
0.433105	1.664973
0.433594	1.664995
0.434082	1.665013
0.434570	1.665127
0.435059	1.665038
0.435547	1.664750
0.436035	1.664925
0.436523	1.665130
0.437012	1.665007
0.437500	1.664714
0.437988	1.664739
0.438477	1.664905
0.438965	1.665183
0.439453	1.664903
0.439941	1.665141
0.440430	1.664909
0.440918	1.665058
0.441406	1.665138
0.441895	1.664838
0.442383	1.664933
0.442871	1.664695
0.443359	1.664890
0.443848	1.664994
0.444336	1.664878
0.444824	1.664912
0.445312	1.664658
0.445801	1.665000
0.446289	1.664978
0.446777	1.665172
0.447266	1.664434
0.447754	1.664613
0.448242	1.664952
0.448730	1.664911
0.449219	1.664623
0.449707	1.664613
0.450195	1.664537
0.450684	1.664872
0.451172	1.664687
0.451660	1.664729
0.452148	1.664707
0.452637	1.664398
0.453125	1.664696
0.453613	1.665073
0.454102	1.664912
0.454590	1.664794
0.455078	1.664638
0.455566	1.665213
0.456055	1.664959
0.456543	1.664724
0.457031	1.664710
0.457520	1.664506
0.458008	1.664888
0.458496	1.664899
0.458984	1.664903
0.459473	1.664549
0.459961	1.664801
0.460449	1.664776
0.460937	1.664576
0.461426	1.664640
0.461914	1.664380
0.462402	1.664653
0.462891	1.664760
0.463379	1.664837
0.463867	1.664823
0.464355	1.664698
0.464844	1.664770
0.465332	1.664937
0.465820	1.664906
0.466309	1.664791
0.466797	1.664829
0.467285	1.664961
0.467773	1.664990
0.468262	1.665194
0.468750	1.664703
0.469238	1.664848
0.469727	1.664917
0.470215	1.664866
0.470703	1.665066
0.471191	1.664852
0.471680	1.664645
0.472168	1.664894
0.472656	1.664822
0.473145	1.664832
0.473633	1.664676
0.474121	1.664590
0.474609	1.664800
0.475098	1.664845
0.475586	1.665022
0.476074	1.664793
0.476562	1.664853
0.477051	1.664853
0.477539	1.664730
0.478027	1.664975
0.478516	1.664846
0.479004	1.664909
0.479492	1.664914
0.479980	1.664944
0.480469	1.664925
0.480957	1.664676
0.481445	1.665020
0.481934	1.664642
0.482422	1.665055
0.482910	1.664925
0.483398	1.664862
0.483887	1.664741
0.484375	1.665268
0.484863	1.665052
0.485352	1.664962
0.485840	1.664966
0.486328	1.664817
0.486816	1.665243
0.487305	1.665170
0.487793	1.664894
0.488281	1.665058
0.488770	1.665002
0.489258	1.665540
0.489746	1.665168
0.490234	1.665088
0.490723	1.665056
0.491211	1.665208
0.491699	1.665304
0.492187	1.665362
0.492676	1.665124
0.493164	1.665178
0.493652	1.665500
0.494141	1.665676
0.494629	1.665451
0.495117	1.665258
0.495605	1.665378
0.496094	1.665565
0.496582	1.665607
0.497070	1.665337
0.497559	1.665387
0.498047	1.665216
0.498535	1.665268
0.499023	1.665255
0.499512	1.665193
0.500000	1.665232
0.500488	1.665466
0.500977	1.665324
0.501465	1.665389
0.501953	1.665323
0.502441	1.665169
0.502930	1.665394
0.503418	1.665597
0.503906	1.665575
0.504395	1.665367
0.504883	1.665252
0.505371	1.665559
0.505859	1.665694
0.506348	1.665512
0.506836	1.665346
0.507324	1.665512
0.507812	1.665465
0.508301	1.665542
0.508789	1.665551
0.509277	1.665421
0.509766	1.665107
0.510254	1.665331
0.510742	1.665407
0.511230	1.665277
0.511719	1.665312
0.512207	1.665194
0.512695	1.665091
0.513184	1.665188
0.513672	1.665033
0.514160	1.665025
0.514648	1.664971
0.515137	1.665025
0.515625	1.665286
0.516113	1.665064
0.516602	1.665179
0.517090	1.664842
0.517578	1.665019
0.518066	1.665317
0.518555	1.665103
0.519043	1.664847
0.519531	1.664884
0.520020	1.665089
0.520508	1.665061
0.520996	1.665336
0.521484	1.664877
0.521973	1.665080
0.522461	1.665020
0.522949	1.665183
0.523437	1.664798
0.523926	1.664932
0.524414	1.664919
0.524902	1.664926
0.525391	1.664946
0.525879	1.664846
0.526367	1.664796
0.526855	1.664748
0.527344	1.664713
0.527832	1.664865
0.528320	1.664917
0.528809	1.664740
0.529297	1.665003
0.529785	1.664747
0.530273	1.664868
0.530762	1.664750
0.531250	1.664568
0.531738	1.664613
0.532227	1.664781
0.532715	1.664896
0.533203	1.664752
0.533691	1.664635
0.534180	1.664909
0.534668	1.664931
0.535156	1.664769
0.535645	1.664817
0.536133	1.664807
0.536621	1.664813
0.537109	1.664918
0.537598	1.664981
0.538086	1.664737
0.538574	1.664720
0.539062	1.664740
0.539551	1.664859
0.540039	1.664872
0.540527	1.664905
0.541016	1.664627
0.541504	1.664886
0.541992	1.664816
0.542480	1.664805
0.542969	1.664612
0.543457	1.664706
0.543945	1.665014
0.544434	1.665016
0.544922	1.664823
0.545410	1.664945
0.545898	1.664908
0.546387	1.665182
0.546875	1.665323
0.547363	1.664997
0.547852	1.664966
0.548340	1.664726
0.548828	1.665026
0.549316	1.664897
0.549805	1.664894
0.550293	1.664476
0.550781	1.664743
0.551270	1.664871
0.551758	1.664944
0.552246	1.664607
0.552734	1.664697
0.553223	1.664700
0.553711	1.664985
0.554199	1.665214
0.554687	1.664772
0.555176	1.664713
0.555664	1.664945
0.556152	1.665215
0.556641	1.664967
0.557129	1.664903
0.557617	1.664709
0.558105	1.664850
0.558594	1.665024
0.559082	1.665238
0.559570	1.664576
0.560059	1.664880
0.560547	1.664919
0.561035	1.665081
0.561523	1.665058
0.562012	1.664920
0.562500	1.665181
0.562988	1.665177
0.563477	1.665516
0.563965	1.665129
0.564453	1.665056
0.564941	1.665121
0.565430	1.665075
0.565918	1.665279
0.566406	1.665221
0.566895	1.664980
0.567383	1.665086
0.567871	1.665212
0.568359	1.665332
0.568848	1.665091
0.569336	1.665033
0.569824	1.665180
0.570312	1.665304
0.570801	1.665468
0.571289	1.665382
0.571777	1.665319
0.572266	1.665121
0.572754	1.665520
0.573242	1.665510
0.573730	1.665298
0.574219	1.665175
0.574707	1.665434
0.575195	1.665442
0.575684	1.665443
0.576172	1.665141
0.576660	1.665449
0.577148	1.665281
0.577637	1.665467
0.578125	1.665329
0.578613	1.665153
0.579102	1.665204
0.579590	1.665111
0.580078	1.665449
0.580566	1.665372
0.581055	1.665388
0.581543	1.665598
0.582031	1.665294
0.582520	1.665333
0.583008	1.665506
0.583496	1.665441
0.583984	1.665308
0.584473	1.665316
0.584961	1.665451
0.585449	1.665469
0.585937	1.665028
0.586426	1.665348
0.586914	1.665249
0.587402	1.665448
0.587891	1.665425
0.588379	1.665323
0.588867	1.665471
0.589355	1.665306
0.589844	1.665526
0.590332	1.665227
0.590820	1.665196
0.591309	1.665066
0.591797	1.665118
0.592285	1.665646
0.592773	1.665124
0.593262	1.665401
0.593750	1.665415
0.594238	1.665502
0.594727	1.665279
0.595215	1.665074
0.595703	1.665100
0.596191	1.665233
0.596680	1.665280
0.597168	1.665242
0.597656	1.665396
0.598145	1.665088
0.598633	1.665045
0.599121	1.665354
0.599609	1.665227
0.600098	1.665170
0.600586	1.665189
0.601074	1.665017
0.601562	1.665515
0.602051	1.665169
0.602539	1.665181
0.603027	1.665221
0.603516	1.665097
0.604004	1.665570
0.604492	1.665368
0.604980	1.665245
0.605469	1.665160
0.605957	1.665201
0.606445	1.665449
0.606934	1.665187
0.607422	1.665138
0.607910	1.665368
0.608398	1.665296
0.608887	1.665504
0.609375	1.665358
0.609863	1.665327
0.610352	1.665319
0.610840	1.665346
0.611328	1.665682
0.611816	1.665483
0.612305	1.665162
0.612793	1.665341
0.613281	1.665490
0.613770	1.665526
0.614258	1.665407
0.614746	1.665163
0.615234	1.665458
0.615723	1.665302
0.616211	1.665291
0.616699	1.665394
0.617187	1.665207
0.617676	1.665276
0.618164	1.665260
0.618652	1.665582
0.619141	1.665365
0.619629	1.664895
0.620117	1.665225
0.620605	1.665129
0.621094	1.665373
0.621582	1.665417
0.622070	1.665056
0.622559	1.665279
0.623047	1.665461
0.623535	1.665435
0.624023	1.665124
0.624512	1.665194
0.625000	1.665220
0.625488	1.665290
0.625977	1.665528
0.626465	1.665316
0.626953	1.665054
0.627441	1.665229
0.627930	1.665268
0.628418	1.665080
0.628906	1.664654
0.629395	1.664870
0.629883	1.665077
0.630371	1.665105
0.630859	1.665088
0.631348	1.664961
0.631836	1.664689
0.632324	1.664684
0.632812	1.665033
0.633301	1.664851
0.633789	1.664810
0.634277	1.664549
0.634766	1.664850
0.635254	1.664844
0.635742	1.665032
0.636230	1.664913
0.636719	1.664784
0.637207	1.665032
0.637695	1.665154
0.638184	1.665124
0.638672	1.664953
0.639160	1.664966
0.639648	1.665022
0.640137	1.665025
0.640625	1.665322
0.641113	1.664961
0.641602	1.665060
0.642090	1.665099
0.642578	1.665124
0.643066	1.664945
0.643555	1.664881
0.644043	1.665072
0.644531	1.664931
0.645020	1.665242
0.645508	1.665121
0.645996	1.665052
0.646484	1.665086
0.646973	1.665257
0.647461	1.665159
0.647949	1.665449
0.648437	1.665100
0.648926	1.665150
0.649414	1.665101
0.649902	1.665265
0.650391	1.665179
0.650879	1.665055
0.651367	1.665198
0.651855	1.665318
0.652344	1.665328
0.652832	1.665172
0.653320	1.665184
0.653809	1.665221
0.654297	1.665633
0.654785	1.665437
0.655273	1.665237
0.655762	1.665322
0.656250	1.665521
0.656738	1.665671
0.657227	1.665635
0.657715	1.665393
0.658203	1.665445
0.658691	1.665257
0.659180	1.665409
0.659668	1.665372
0.660156	1.665196
0.660645	1.665312
0.661133	1.665373
0.661621	1.665440
0.662109	1.665243
0.662598	1.665033
0.663086	1.665169
0.663574	1.665132
0.664062	1.665254
0.664551	1.665324
0.665039	1.665011
0.665527	1.665261
0.666016	1.665106
0.666504	1.665484
0.666992	1.665243
0.667480	1.665005
0.667969	1.664978
0.668457	1.665297
0.668945	1.665401
0.669434	1.665268
0.669922	1.665336
0.670410	1.665166
0.670898	1.665418
0.671387	1.665402
0.671875	1.665188
0.672363	1.665111
0.672852	1.665009
0.673340	1.665498
0.673828	1.665253
0.674316	1.665197
0.674805	1.665259
0.675293	1.665188
0.675781	1.665543
0.676270	1.665418
0.676758	1.665356
0.677246	1.665075
0.677734	1.665462
0.678223	1.665276
0.678711	1.665530
0.679199	1.665329
0.679687	1.665291
0.680176	1.665532
0.680664	1.665424
0.681152	1.665447
0.681641	1.665413
0.682129	1.665324
0.682617	1.665246
0.683105	1.665268
0.683594	1.665337
0.684082	1.665197
0.684570	1.665053
0.685059	1.665360
0.685547	1.665332
0.686035	1.665323
0.686523	1.665222
0.687012	1.665254
0.687500	1.665407
0.687988	1.665348
0.688477	1.665182
0.688965	1.665173
0.689453	1.665035
0.689941	1.665485
0.690430	1.665462
0.690918	1.665046
0.691406	1.665038
0.691895	1.664955
0.692383	1.665446
0.692871	1.665454
0.693359	1.665254
0.693848	1.664935
0.694336	1.665380
0.694824	1.665350
0.695312	1.665318
0.695801	1.664918
0.696289	1.665230
0.696777	1.665224
0.697266	1.665290
0.697754	1.665191
0.698242	1.665197
0.698730	1.665006
0.699219	1.665413
0.699707	1.665205
0.700195	1.665080
0.700684	1.664860
0.701172	1.664983
0.701660	1.665132
0.702148	1.665265
0.702637	1.665025
0.703125	1.664887
0.703613	1.665037
0.704102	1.665012
0.704590	1.665070
0.705078	1.664838
0.705566	1.664742
0.706055	1.664828
0.706543	1.664890
0.707031	1.664975
0.707520	1.665069
0.708008	1.664877
0.708496	1.665021
0.708984	1.665038
0.709473	1.665009
0.709961	1.665072
0.710449	1.664863
0.710937	1.664704
0.711426	1.664930
0.711914	1.665128
0.712402	1.664883
0.712891	1.664577
0.713379	1.664725
0.713867	1.665072
0.714355	1.664747
0.714844	1.664798
0.715332	1.664775
0.715820	1.664676
0.716309	1.664940
0.716797	1.665033
0.717285	1.664811
0.717773	1.664909
0.718262	1.664583
0.718750	1.665080
0.719238	1.664906
0.719727	1.664800
0.720215	1.664742
0.720703	1.664959
0.721191	1.664888
0.721680	1.665151
0.722168	1.665025
0.722656	1.664925
0.723145	1.665056
0.723633	1.665161
0.724121	1.665060
0.724609	1.664814
0.725098	1.664932
0.725586	1.665094
0.726074	1.665147
0.726562	1.665283
0.727051	1.664989
0.727539	1.664867
0.728027	1.665039
0.728516	1.665243
0.729004	1.665065
0.729492	1.664699
0.729980	1.664750
0.730469	1.664897
0.730957	1.664871
0.731445	1.664947
0.731934	1.664862
0.732422	1.664709
0.732910	1.664917
0.733398	1.665094
0.733887	1.665033
0.734375	1.664855
0.734863	1.665089
0.735352	1.664914
0.735840	1.665100
0.736328	1.665050
0.736816	1.664991
0.737305	1.664955
0.737793	1.665116
0.738281	1.665308
0.738770	1.665027
0.739258	1.665006
0.739746	1.665020
0.740234	1.665416
0.740723	1.665262
0.741211	1.664994
0.741699	1.665213
0.742187	1.664969
0.742676	1.665316
0.743164	1.665241
0.743652	1.664970
0.744141	1.665065
0.744629	1.665121
0.745117	1.665049
0.745605	1.665517
0.746094	1.665316
0.746582	1.665203
0.747070	1.665416
0.747559	1.665546
0.748047	1.665515
0.748535	1.665339
0.749023	1.665350
0.749512	1.665275
0.750000	1.665521
0.750488	1.665478
0.750977	1.665155
0.751465	1.665271
0.751953	1.665518
0.752441	1.665456
0.752930	1.665468
0.753418	1.665271
0.753906	1.665033
0.754395	1.665384
0.754883	1.665547
0.755371	1.665359
0.755859	1.665341
0.756348	1.665236
0.756836	1.665725
0.757324	1.665492
0.757812	1.665407
0.758301	1.665279
0.758789	1.665395
0.759277	1.665315
0.759766	1.665468
0.760254	1.665396
0.760742	1.665404
0.761230	1.665455
0.761719	1.665573
0.762207	1.665586
0.762695	1.665505
0.763184	1.665548
0.763672	1.665402
0.764160	1.665692
0.764648	1.665680
0.765137	1.665480
0.765625	1.665586
0.766113	1.665665
0.766602	1.665678
0.767090	1.665845
0.767578	1.665537
0.768066	1.665550
0.768555	1.665498
0.769043	1.665690
0.769531	1.665372
0.770020	1.665502
0.770508	1.665260
0.770996	1.665323
0.771484	1.665294
0.771973	1.665630
0.772461	1.665128
0.772949	1.665185
0.773437	1.665517
0.773926	1.665789
0.774414	1.665601
0.774902	1.665406
0.775391	1.665560
0.775879	1.665478
0.776367	1.665802
0.776855	1.665492
0.777344	1.665458
0.777832	1.665750
0.778320	1.665741
0.778809	1.665663
0.779297	1.665446
0.779785	1.665377
0.780273	1.665204
0.780762	1.665329
0.781250	1.665459
0.781738	1.665370
0.782227	1.665166
0.782715	1.665163
0.783203	1.665373
0.783691	1.665376
0.784180	1.665245
0.784668	1.665319
0.785156	1.665225
0.785645	1.665390
0.786133	1.665344
0.786621	1.665460
0.787109	1.665233
0.787598	1.665283
0.788086	1.665634
0.788574	1.665535
0.789062	1.665366
0.789551	1.665445
0.790039	1.665428
0.790527	1.665755
0.791016	1.665553
0.791504	1.665262
0.791992	1.665400
0.792480	1.665078
0.792969	1.665498
0.793457	1.665503
0.793945	1.665262
0.794434	1.665424
0.794922	1.665398
0.795410	1.665659
0.795898	1.665462
0.796387	1.665293
0.796875	1.665425
0.797363	1.665363
0.797852	1.665550
0.798340	1.665327
0.798828	1.665277
0.799316	1.665406
0.799805	1.665261
0.800293	1.665452
0.800781	1.665321
0.801270	1.665505
0.801758	1.665115
0.802246	1.665618
0.802734	1.665563
0.803223	1.665480
0.803711	1.665234
0.804199	1.665439
0.804687	1.665354
0.805176	1.665340
0.805664	1.665266
0.806152	1.665131
0.806641	1.665200
0.807129	1.665180
0.807617	1.665108
0.808105	1.665034
0.808594	1.664761
0.809082	1.664989
0.809570	1.665058
0.810059	1.664776
0.810547	1.665090
0.811035	1.664810
0.811523	1.664810
0.812012	1.664857
0.812500	1.664911
0.812988	1.664923
0.813477	1.664629
0.813965	1.664964
0.814453	1.665227
0.814941	1.664966
0.815430	1.664911
0.815918	1.665112
0.816406	1.665163
0.816895	1.665223
0.817383	1.665193
0.817871	1.664909
0.818359	1.664950
0.818848	1.665013
0.819336	1.664999
0.819824	1.664854
0.820312	1.664781
0.820801	1.664552
0.821289	1.664883
0.821777	1.665030
0.822266	1.664811
0.822754	1.664773
0.823242	1.664689
0.823730	1.664920
0.824219	1.664942
0.824707	1.664807
0.825195	1.664560
0.825684	1.664788
0.826172	1.664863
0.826660	1.665094
0.827148	1.664825
0.827637	1.664748
0.828125	1.665100
0.828613	1.665003
0.829102	1.665139
0.829590	1.664999
0.830078	1.664854
0.830566	1.664989
0.831055	1.665178
0.831543	1.665182
0.832031	1.664976
0.832520	1.665063
0.833008	1.665010
0.833496	1.665257
0.833984	1.665061
0.834473	1.664928
0.834961	1.664836
0.835449	1.664876
0.835937	1.665061
0.836426	1.665041
0.836914	1.664916
0.837402	1.664773
0.837891	1.665204
0.838379	1.665081
0.838867	1.665410
0.839355	1.665310
0.839844	1.664967
0.840332	1.665351
0.840820	1.665239
0.841309	1.665196
0.841797	1.665248
0.842285	1.665402
0.842773	1.665398
0.843262	1.665392
0.843750	1.665225
0.844238	1.665324
0.844727	1.665225
0.845215	1.665578
0.845703	1.665445
0.846191	1.665516
0.846680	1.665391
0.847168	1.665541
0.847656	1.665386
0.848145	1.665423
0.848633	1.665372
0.849121	1.665326
0.849609	1.665077
0.850098	1.665281
0.850586	1.665377
0.851074	1.665166
0.851562	1.665189
0.852051	1.664978
0.852539	1.665279
0.853027	1.665459
0.853516	1.665300
0.854004	1.665166
0.854492	1.665235
0.854980	1.665396
0.855469	1.665603
0.855957	1.665417
0.856445	1.665245
0.856934	1.665480
0.857422	1.665602
0.857910	1.665685
0.858398	1.665496
0.858887	1.665600
0.859375	1.665543
0.859863	1.665737
0.860352	1.665563
0.860840	1.665449
0.861328	1.665401
0.861816	1.665647
0.862305	1.665642
0.862793	1.665510
0.863281	1.665514
0.863770	1.665377
0.864258	1.665645
0.864746	1.665702
0.865234	1.665593
0.865723	1.665680
0.866211	1.665487
0.866699	1.665625
0.867187	1.665737
0.867676	1.665687
0.868164	1.665623
0.868652	1.665850
0.869141	1.665942
0.869629	1.665849
0.870117	1.666138
0.870605	1.665708
0.871094	1.665669
0.871582	1.665788
0.872070	1.665850
0.872559	1.666061
0.873047	1.665309
0.873535	1.665921
0.874023	1.666030
0.874512	1.665904
0.875000	1.665923
0.875488	1.665718
0.875977	1.665993
0.876465	1.666130
0.876953	1.666016
0.877441	1.665857
0.877930	1.666010
0.878418	1.665936
0.878906	1.666049
0.879395	1.665940
0.879883	1.665914
0.880371	1.665903
0.880859	1.665872
0.881348	1.666139
0.881836	1.666191
0.882324	1.665787
0.882812	1.665986
0.883301	1.666112
0.883789	1.665817
0.884277	1.665958
0.884766	1.665694
0.885254	1.665739
0.885742	1.665777
0.886230	1.666015
0.886719	1.665777
0.887207	1.665724
0.887695	1.665572
0.888184	1.665858
0.888672	1.665863
0.889160	1.665419
0.889648	1.665358
0.890137	1.665241
0.890625	1.665531
0.891113	1.665542
0.891602	1.665586
0.892090	1.665500
0.892578	1.665505
0.893066	1.665467
0.893555	1.665881
0.894043	1.665482
0.894531	1.665377
0.895020	1.665609
0.895508	1.665711
0.895996	1.665665
0.896484	1.665657
0.896973	1.665401
0.897461	1.665338
0.897949	1.665708
0.898437	1.665577
0.898926	1.665521
0.899414	1.665243
0.899902	1.665370
0.900391	1.665476
0.900879	1.665043
0.901367	1.665180
0.901855	1.664966
0.902344	1.665061
0.902832	1.665194
0.903320	1.665277
0.903809	1.665049
0.904297	1.665118
0.904785	1.665116
0.905273	1.665068
0.905762	1.665157
0.906250	1.665187
0.906738	1.665191
0.907227	1.665353
0.907715	1.665280
0.908203	1.665155
0.908691	1.665157
0.909180	1.664739
0.909668	1.665144
0.910156	1.665186
0.910645	1.665083
0.911133	1.664952
0.911621	1.664967
0.912109	1.665291
0.912598	1.665124
0.913086	1.664822
0.913574	1.665086
0.914062	1.664845
0.914551	1.665276
0.915039	1.665205
0.915527	1.665076
0.916016	1.664844
0.916504	1.665072
0.916992	1.665055
0.917480	1.664798
0.917969	1.664909
0.918457	1.664920
0.918945	1.665102
0.919434	1.665054
0.919922	1.665088
0.920410	1.665095
0.920898	1.664723
0.921387	1.665066
0.921875	1.664999
0.922363	1.665012
0.922852	1.665090
0.923340	1.664934
0.923828	1.665224
0.924316	1.665165
0.924805	1.665134
0.925293	1.664947
0.925781	1.664965
0.926270	1.665028
0.926758	1.664961
0.927246	1.664994
0.927734	1.664907
0.928223	1.664720
0.928711	1.664798
0.929199	1.664925
0.929687	1.664975
0.930176	1.664847
0.930664	1.664856
0.931152	1.665243
0.931641	1.665011
0.932129	1.665135
0.932617	1.664809
0.933105	1.664791
0.933594	1.665117
0.934082	1.665067
0.934570	1.665100
0.935059	1.664966
0.935547	1.665044
0.936035	1.665150
0.936523	1.665531
0.937012	1.665211
0.937500	1.665230
0.937988	1.665249
0.938477	1.665415
0.938965	1.665535
0.939453	1.665384
0.939941	1.665131
0.940430	1.665369
0.940918	1.665581
0.941406	1.665578
0.941895	1.665363
0.942383	1.665301
0.942871	1.665216
0.943359	1.665268
0.943848	1.665535
0.944336	1.665344
0.944824	1.665121
0.945312	1.665195
0.945801	1.665538
0.946289	1.665330
0.946777	1.665349
0.947266	1.665251
0.947754	1.665229
0.948242	1.665582
0.948730	1.665524
0.949219	1.665605
0.949707	1.665380
0.950195	1.665838
0.950684	1.665790
0.951172	1.665432
0.951660	1.665561
0.952148	1.665285
0.952637	1.665487
0.953125	1.665625
0.953613	1.665647
0.954102	1.665382
0.954590	1.665490
0.955078	1.665542
0.955566	1.665636
0.956055	1.665481
0.956543	1.665640
0.957031	1.665349
0.957520	1.665662
0.958008	1.665672
0.958496	1.665836
0.958984	1.665263
0.959473	1.665232
0.959961	1.665661
0.960449	1.665531
0.960937	1.665578
0.961426	1.665565
0.961914	1.665521
0.962402	1.665549
0.962891	1.665717
0.963379	1.665538
0.963867	1.665694
0.964355	1.665722
0.964844	1.665623
0.965332	1.665676
0.965820	1.666103
0.966309	1.665520
0.966797	1.665477
0.967285	1.665939
0.967773	1.665787
0.968262	1.665706
0.968750	1.665384
0.969238	1.665849
0.969727	1.665896
0.970215	1.665344
0.970703	1.665613
0.971191	1.665183
0.971680	1.665349
0.972168	1.665406
0.972656	1.665351
0.973145	1.665168
0.973633	1.665254
0.974121	1.665365
0.974609	1.665434
0.975098	1.665178
0.975586	1.665333
0.976074	1.665447
0.976562	1.665540
0.977051	1.665618
0.977539	1.665199
0.978027	1.665177
0.978516	1.665142
0.979004	1.665304
0.979492	1.664956
0.979980	1.665101
0.980469	1.665266
0.980957	1.664975
0.981445	1.665323
0.981934	1.665002
0.982422	1.664948
0.982910	1.664624
0.983398	1.664889
0.983887	1.664901
0.984375	1.665019
0.984863	1.664973
0.985352	1.664831
0.985840	1.664867
0.986328	1.665080
0.986816	1.665153
0.987305	1.664964
0.987793	1.665143
0.988281	1.664798
0.988770	1.664933
0.989258	1.665218
0.989746	1.664990
0.990234	1.665100
0.990723	1.665112
0.991211	1.665494
0.991699	1.665122
0.992187	1.664930
0.992676	1.664936
0.993164	1.664789
0.993652	1.665150
0.994141	1.665205
0.994629	1.664981
0.995117	1.664835
0.995605	1.665077
0.996094	1.665177
0.996582	1.665354
0.997070	1.664903
0.997559	1.664998
0.998047	1.665127
0.998535	1.665135
0.999023	1.665068
0.999512	1.664922
1.000000	1.664745
1.000488	1.664915
1.000977	1.665175
1.001465	1.665072
1.001953	1.664892
1.002441	1.664919
1.002930	1.665037
1.003418	1.665352
1.003906	1.664925
1.004395	1.664914
1.004883	1.664961
1.005371	1.665064
1.005859	1.665341
1.006348	1.665130
1.006836	1.665013
1.007324	1.665138
1.007812	1.665183
1.008301	1.665343
1.008789	1.665138
1.009277	1.664659
1.009766	1.664684
1.010254	1.665126
1.010742	1.665117
1.011230	1.664983
1.011719	1.664758
1.012207	1.665010
1.012695	1.665066
1.013184	1.665071
1.013672	1.665100
1.014160	1.664908
1.014648	1.664998
1.015137	1.665246
1.015625	1.665227
1.016113	1.665002
1.016602	1.665327
1.017090	1.665443
1.017578	1.665200
1.018066	1.665184
1.018555	1.665299
1.019043	1.665115
1.019531	1.665280
1.020020	1.665409
1.020508	1.665187
1.020996	1.665247
1.021484	1.665316
1.021973	1.665293
1.022461	1.665395
1.022949	1.665182
1.023437	1.665092
1.023926	1.665170
1.024414	1.665229
1.024902	1.665193
1.025391	1.665108
1.025879	1.665251
1.026367	1.665227
1.026855	1.665359
1.027344	1.665172
1.027832	1.665192
1.028320	1.665211
1.028809	1.665175
1.029297	1.665291
1.029785	1.665263
1.030273	1.665072
1.030762	1.665031
1.031250	1.665357
1.031738	1.665395
1.032227	1.665310
1.032715	1.665256
1.033203	1.665633
1.033691	1.665403
1.034180	1.665268
1.034668	1.665535
1.035156	1.665270
1.035645	1.665277
1.036133	1.665302
1.036621	1.665413
1.037109	1.665269
1.037598	1.665324
1.038086	1.665332
1.038574	1.665337
1.039062	1.665304
1.039551	1.665695
1.040039	1.665184
1.040527	1.665464
1.041016	1.665409
1.041504	1.665514
1.041992	1.665584
1.042480	1.665592
1.042969	1.665499
1.043457	1.665484
1.043945	1.665752
1.044434	1.665739
1.044922	1.665565
1.045410	1.665468
1.045898	1.665665
1.046387	1.665910
1.046875	1.665868
1.047363	1.665498
1.047852	1.665651
1.048340	1.665825
1.048828	1.666013
1.049316	1.665536
1.049805	1.665568
1.050293	1.665332
1.050781	1.665567
1.051270	1.665531
1.051758	1.665337
1.052246	1.665329
1.052734	1.665486
1.053223	1.665658
1.053711	1.665418
1.054199	1.665747
1.054687	1.665274
1.055176	1.665680
1.055664	1.665628
1.056152	1.665833
1.056641	1.665742
1.057129	1.665518
1.057617	1.665604
1.058105	1.665791
1.058594	1.665661
1.059082	1.665463
1.059570	1.665485
1.060059	1.665419
1.060547	1.665902
1.061035	1.665535
1.061523	1.665593
1.062012	1.665410
1.062500	1.665509
1.062988	1.665487
1.063477	1.665395
1.063965	1.665444
1.064453	1.665302
1.064941	1.665422
1.065430	1.665437
1.065918	1.665485
1.066406	1.665279
1.066895	1.665484
1.067383	1.665368
1.067871	1.665766
1.068359	1.665807
1.068848	1.665449
1.069336	1.665504
1.069824	1.665467
1.070312	1.665957
1.070801	1.665459
1.071289	1.665426
1.071777	1.665249
1.072266	1.665417
1.072754	1.665329
1.073242	1.665556
1.073730	1.665267
1.074219	1.665139
1.074707	1.665551
1.075195	1.665058
1.075684	1.665255
1.076172	1.665129
1.076660	1.665124
1.077148	1.665147
1.077637	1.665224
1.078125	1.665271
1.078613	1.665124
1.079102	1.665192
1.079590	1.665110
1.080078	1.665185
1.080566	1.664958
1.081055	1.664860
1.081543	1.664998
1.082031	1.665219
1.082520	1.665284
1.083008	1.665064
1.083496	1.665216
1.083984	1.665089
1.084473	1.665342
1.084961	1.665298
1.085449	1.665182
1.085937	1.665093
1.086426	1.665451
1.086914	1.665254
1.087402	1.665112
1.087891	1.665136
1.088379	1.664925
1.088867	1.665220
1.089355	1.665218
1.089844	1.665155
1.090332	1.665060
1.090820	1.664838
1.091309	1.665062
1.091797	1.665079
1.092285	1.664923
1.092773	1.664851
1.093262	1.664948
1.093750	1.665177
1.094238	1.665060
1.094727	1.665028
1.095215	1.664953
1.095703	1.665146
1.096191	1.665108
1.096680	1.665142
1.097168	1.665329
1.097656	1.665067
1.098145	1.665056
1.098633	1.665153
1.099121	1.665344
1.099609	1.665097
1.100098	1.665149
1.100586	1.665148
1.101074	1.665111
1.101562	1.665382
1.102051	1.665004
1.102539	1.665017
1.103027	1.665171
1.103516	1.665153
1.104004	1.665208
1.104492	1.664984
1.104980	1.664926
1.105469	1.665213
1.105957	1.665057
1.106445	1.665408
1.106934	1.665180
1.107422	1.664995
1.107910	1.665072
1.108398	1.665343
1.108887	1.665019
1.109375	1.664951
1.109863	1.664669
1.110352	1.665090
1.110840	1.665211
1.111328	1.665164
1.111816	1.664941
1.112305	1.665184
1.112793	1.665016
1.113281	1.665329
1.113770	1.665129
1.114258	1.665128
1.114746	1.665103
1.115234	1.665326
1.115723	1.665291
1.116211	1.665271
1.116699	1.665233
1.117187	1.665002
1.117676	1.665146
1.118164	1.665300
1.118652	1.665152
1.119141	1.664890
1.119629	1.664950
1.120117	1.664801
1.120605	1.665126
1.121094	1.664949
1.121582	1.664608
1.122070	1.665252
1.122559	1.664760
1.123047	1.664945
1.123535	1.664974
1.124023	1.664826
1.124512	1.664976
1.125000	1.665257
1.125488	1.665133
1.125977	1.665107
1.126465	1.665060
1.126953	1.665105
1.127441	1.665150
1.127930	1.665069
1.128418	1.665184
1.128906	1.665021
1.129395	1.665359
1.129883	1.665218
1.130371	1.665099
1.130859	1.664837
1.131348	1.664925
1.131836	1.664719
1.132324	1.664912
1.132812	1.665097
1.133301	1.664932
1.133789	1.664837
1.134277	1.665067
1.134766	1.665124
1.135254	1.665207
1.135742	1.665048
1.136230	1.664986
1.136719	1.665177
1.137207	1.665437
1.137695	1.665373
1.138184	1.665203
1.138672	1.665150
1.139160	1.665381
1.139648	1.665245
1.140137	1.665250
1.140625	1.665173
1.141113	1.665194
1.141602	1.665485
1.142090	1.665711
1.142578	1.665146
1.143066	1.665317
1.143555	1.665244
1.144043	1.665279
1.144531	1.665416
1.145020	1.665302
1.145508	1.665072
1.145996	1.665243
1.146484	1.665552
1.146973	1.665606
1.147461	1.665449
1.147949	1.665277
1.148437	1.665631
1.148926	1.665546
1.149414	1.665649
1.149902	1.665272
1.150391	1.665425
1.150879	1.665465
1.151367	1.665770
1.151855	1.665643
1.152344	1.665596
1.152832	1.665744
1.153320	1.665503
1.153809	1.665903
1.154297	1.665849
1.154785	1.665811
1.155273	1.665505
1.155762	1.665784
1.156250	1.665574
1.156738	1.665761
1.157227	1.665445
1.157715	1.665408
1.158203	1.665596
1.158691	1.665650
1.159180	1.665633
1.159668	1.665313
1.160156	1.665132
1.160645	1.665697
1.161133	1.665495
1.161621	1.665443
1.162109	1.665520
1.162598	1.665446
1.163086	1.665752
1.163574	1.665720
1.164062	1.665638
1.164551	1.665408
1.165039	1.665587
1.165527	1.665364
1.166016	1.665611
1.166504	1.665663
1.166992	1.665500
1.167480	1.665413
1.167969	1.665714
1.168457	1.665692
1.168945	1.665419
1.169434	1.665589
1.169922	1.665500
1.170410	1.665673
1.170898	1.665632
1.171387	1.665432
1.171875	1.665158
1.172363	1.665445
1.172852	1.665237
1.173340	1.665410
1.173828	1.665437
1.174316	1.665279
1.174805	1.665498
1.175293	1.665403
1.175781	1.665515
1.176270	1.665364
1.176758	1.665373
1.177246	1.665351
1.177734	1.665446
1.178223	1.665586
1.178711	1.665403
1.179199	1.665186
1.179687	1.665354
1.180176	1.665488
1.180664	1.665321
1.181152	1.665214
1.181641	1.665191
1.182129	1.665319
1.182617	1.665474
1.183105	1.665363
1.183594	1.665294
1.184082	1.665247
1.184570	1.665387
1.185059	1.665572
1.185547	1.665433
1.186035	1.665215
1.186523	1.665462
1.187012	1.665591
1.187500	1.665104
1.187988	1.665489
1.188477	1.665067
1.188965	1.665242
1.189453	1.665258
1.189941	1.665269
1.190430	1.665460
1.190918	1.665121
1.191406	1.665332
1.191895	1.665106
1.192383	1.665251
1.192871	1.665181
1.193359	1.665186
1.193848	1.665103
1.194336	1.665314
1.194824	1.665204
1.195312	1.665276
1.195801	1.665252
1.196289	1.665224
1.196777	1.665413
1.197266	1.665462
1.197754	1.665274
1.198242	1.665118
1.198730	1.665382
1.199219	1.665021
1.199707	1.665160
1.200195	1.665053
1.200684	1.664967
1.201172	1.665028
1.201660	1.665293
1.202148	1.665344
1.202637	1.665102
1.203125	1.665182
1.203613	1.665216
1.204102	1.665315
1.204590	1.665026
1.205078	1.665028
1.205566	1.664955
1.206055	1.665194
1.206543	1.665016
1.207031	1.665251
1.207520	1.664721
1.208008	1.664982
1.208496	1.665113
1.208984	1.665125
1.209473	1.664851
1.209961	1.665062
1.210449	1.664969
1.210937	1.664928
1.211426	1.664937
1.211914	1.664867
1.212402	1.664856
1.212891	1.664883
1.213379	1.665086
1.213867	1.664878
1.214355	1.665016
1.214844	1.664601
1.215332	1.664837
1.215820	1.664930
1.216309	1.665031
1.216797	1.664767
1.217285	1.664807
1.217773	1.664795
1.218262	1.665097
1.218750	1.665147
1.219238	1.664961
1.219727	1.665019
1.220215	1.664773
1.220703	1.664931
1.221191	1.664629
1.221680	1.664878
1.222168	1.664693
1.222656	1.664870
1.223145	1.664805
1.223633	1.664945
1.224121	1.664690
1.224609	1.664931
1.225098	1.664582
1.225586	1.664837
1.226074	1.664814
1.226562	1.664753
1.227051	1.664577
1.227539	1.664817
1.228027	1.664898
1.228516	1.664790
1.229004	1.664698
1.229492	1.664540
1.229980	1.664772
1.230469	1.664780
1.230957	1.664634
1.231445	1.664345
1.231934	1.664654
1.232422	1.664894
1.232910	1.665001
1.233398	1.664794
1.233887	1.664905
1.234375	1.664818
1.234863	1.665022
1.235352	1.665106
1.235840	1.664967
1.236328	1.664883
1.236816	1.664868
1.237305	1.664991
1.237793	1.664985
1.238281	1.664764
1.238770	1.664647
1.239258	1.664886
1.239746	1.664697
1.240234	1.665006
1.240723	1.664939
1.241211	1.664797
1.241699	1.665092
1.242187	1.664943
1.242676	1.665150
1.243164	1.664750
1.243652	1.664779
1.244141	1.665160
1.244629	1.665237
1.245117	1.665114
1.245605	1.665125
1.246094	1.665139
1.246582	1.665022
1.247070	1.665456
1.247559	1.665200
1.248047	1.665143
1.248535	1.665067
1.249023	1.665152
1.249512	1.665191
1.250000	1.665054
1.250488	1.665014
1.250977	1.664812
1.251465	1.665460
1.251953	1.665233
1.252441	1.664894
1.252930	1.665192
1.253418	1.664952
1.253906	1.665246
1.254395	1.665275
1.254883	1.665446
1.255371	1.665518
1.255859	1.664970
1.256348	1.665327
1.256836	1.665375
1.257324	1.665166
1.257812	1.665301
1.258301	1.665255
1.258789	1.665469
1.259277	1.665598
1.259766	1.665596
1.260254	1.665109
1.260742	1.665429
1.261230	1.665528
1.261719	1.665139
1.262207	1.665280
1.262695	1.665213
1.263184	1.665313
1.263672	1.665463
1.264160	1.665716
1.264648	1.665407
1.265137	1.665481
1.265625	1.665275
1.266113	1.665556
1.266602	1.665664
1.267090	1.665370
1.267578	1.665214
1.268066	1.665380
1.268555	1.665709
1.269043	1.665563
1.269531	1.665432
1.270020	1.665488
1.270508	1.665520
1.270996	1.665681
1.271484	1.665561
1.271973	1.665464
1.272461	1.665407
1.272949	1.665659
1.273437	1.665551
1.273926	1.665671
1.274414	1.665634
1.274902	1.665280
1.275391	1.665585
1.275879	1.665578
1.276367	1.665667
1.276855	1.665628
1.277344	1.665324
1.277832	1.665587
1.278320	1.665639
1.278809	1.665094
1.279297	1.665309
1.279785	1.665087
1.280273	1.665348
1.280762	1.665291
1.281250	1.665338
1.281738	1.665281
1.282227	1.665074
1.282715	1.665366
1.283203	1.665342
1.283691	1.665010
1.284180	1.665199
1.284668	1.665026
1.285156	1.665527
1.285645	1.665318
1.286133	1.665277
1.286621	1.665039
1.287109	1.665218
1.287598	1.665398
1.288086	1.665465
1.288574	1.665038
1.289062	1.665078
1.289551	1.665136
1.290039	1.665059
1.290527	1.665205
1.291016	1.664793
1.291504	1.665045
1.291992	1.665006
1.292480	1.665276
1.292969	1.664970
1.293457	1.664781
1.293945	1.664832
1.294434	1.664973
1.294922	1.664948
1.295410	1.665171
1.295898	1.664692
1.296387	1.664698
1.296875	1.664885
1.297363	1.664731
1.297852	1.665045
1.298340	1.664604
1.298828	1.664830
1.299316	1.664860
1.299805	1.664521
1.300293	1.664759
1.300781	1.664434
1.301270	1.664379
1.301758	1.664555
1.302246	1.664922
1.302734	1.664529
1.303223	1.664515
1.303711	1.664693
1.304199	1.664766
1.304687	1.664837
1.305176	1.664510
1.305664	1.664443
1.306152	1.664405
1.306641	1.664739
1.307129	1.664669
1.307617	1.664635
1.308105	1.664495
1.308594	1.664553
1.309082	1.664391
1.309570	1.664710
1.310059	1.664446
1.310547	1.664514
1.311035	1.664648
1.311523	1.664704
1.312012	1.664594
1.312500	1.664373
1.312988	1.664657
1.313477	1.664551
1.313965	1.664717
1.314453	1.664616
1.314941	1.664649
1.315430	1.664573
1.315918	1.664836
1.316406	1.664835
1.316895	1.665070
1.317383	1.664950
1.317871	1.664748
1.318359	1.664993
1.318848	1.665185
1.319336	1.665003
1.319824	1.664970
1.320312	1.664593
1.320801	1.665109
1.321289	1.664991
1.321777	1.664703
1.322266	1.664712
1.322754	1.664779
1.323242	1.664858
1.323730	1.664900
1.324219	1.664978
1.324707	1.664924
1.325195	1.664667
1.325684	1.664988
1.326172	1.665126
1.326660	1.665145
1.327148	1.664993
1.327637	1.664767
1.328125	1.665412
1.328613	1.665150
1.329102	1.665127
1.329590	1.664928
1.330078	1.665045
1.330566	1.665060
1.331055	1.664973
1.331543	1.665144
1.332031	1.664986
1.332520	1.664765
1.333008	1.664859
1.333496	1.665134
1.333984	1.664857
1.334473	1.664873
1.334961	1.664914
1.335449	1.665003
1.335937	1.665098
1.336426	1.664959
1.336914	1.664858
1.337402	1.664942
1.337891	1.665304
1.338379	1.665186
1.338867	1.665217
1.339355	1.665251
1.339844	1.665119
1.340332	1.665185
1.340820	1.665164
1.341309	1.664972
1.341797	1.664856
1.342285	1.665127
1.342773	1.665261
1.343262	1.665181
1.343750	1.664962
1.344238	1.664856
1.344727	1.665144
1.345215	1.664994
1.345703	1.664934
1.346191	1.664859
1.346680	1.664769
1.347168	1.665044
1.347656	1.664988
1.348145	1.664916
1.348633	1.664739
1.349121	1.664934
1.349609	1.664705
1.350098	1.664615
1.350586	1.664883
1.351074	1.664682
1.351562	1.664762
1.352051	1.665077
1.352539	1.665074
1.353027	1.665128
1.353516	1.664873
1.354004	1.665060
1.354492	1.664981
1.354980	1.665005
1.355469	1.665105
1.355957	1.664863
1.356445	1.665019
1.356934	1.665014
1.357422	1.665003
1.357910	1.664857
1.358398	1.664406
1.358887	1.664797
1.359375	1.664972
1.359863	1.664877
1.360352	1.664729
1.360840	1.664681
1.361328	1.664527
1.361816	1.664858
1.362305	1.664790
1.362793	1.664743
1.363281	1.664598
1.363770	1.664521
1.364258	1.664676
1.364746	1.664554
1.365234	1.664561
1.365723	1.664416
1.366211	1.664770
1.366699	1.664787
1.367187	1.664887
1.367676	1.664591
1.368164	1.664759
1.368652	1.664597
1.369141	1.664646
1.369629	1.664742
1.370117	1.664335
1.370605	1.664648
1.371094	1.664502
1.371582	1.664986
1.372070	1.664783
1.372559	1.664708
1.373047	1.664535
1.373535	1.664721
1.374023	1.664833
1.374512	1.664515
1.375000	1.664585
1.375488	1.664576
1.375977	1.664486
1.376465	1.664806
1.376953	1.664478
1.377441	1.664568
1.377930	1.664428
1.378418	1.664696
1.378906	1.664429
1.379395	1.664670
1.379883	1.664339
1.380371	1.664339
1.380859	1.664862
1.381348	1.664808
1.381836	1.664680
1.382324	1.664436
1.382812	1.664607
1.383301	1.664519
1.383789	1.664457
1.384277	1.664495
1.384766	1.664432
1.385254	1.664384
1.385742	1.664543
1.386230	1.664466
1.386719	1.664358
1.387207	1.664243
1.387695	1.664353
1.388184	1.664221
1.388672	1.664550
1.389160	1.664015
1.389648	1.664422
1.390137	1.664380
1.390625	1.664452
1.391113	1.664696
1.391602	1.664294
1.392090	1.664075
1.392578	1.664335
1.393066	1.664712
1.393555	1.664438
1.394043	1.664355
1.394531	1.664307
1.395020	1.664563
1.395508	1.664410
1.395996	1.664536
1.396484	1.664344
1.396973	1.664483
1.397461	1.664550
1.397949	1.664653
1.398437	1.664658
1.398926	1.664403
1.399414	1.664433
1.399902	1.664423
1.400391	1.664400
1.400879	1.664547
1.401367	1.664417
1.401855	1.664368
1.402344	1.664563
1.402832	1.664726
1.403320	1.664396
1.403809	1.664515
1.404297	1.664457
1.404785	1.664754
1.405273	1.664543
1.405762	1.664478
1.406250	1.664387
1.406738	1.664568
1.407227	1.664623
1.407715	1.664780
1.408203	1.664750
1.408691	1.664624
1.409180	1.664812
1.409668	1.664941
1.410156	1.664565
1.410645	1.664523
1.411133	1.664446
1.411621	1.664717
1.412109	1.664644
1.412598	1.664991
1.413086	1.664815
1.413574	1.664569
1.414062	1.664760
1.414551	1.664688
1.415039	1.664788
1.415527	1.664518
1.416016	1.664531
1.416504	1.664679
1.416992	1.664857
1.417480	1.664795
1.417969	1.664668
1.418457	1.664684
1.418945	1.664826
1.419434	1.664919
1.419922	1.664750
1.420410	1.664758
1.420898	1.664419
1.421387	1.664940
1.421875	1.665033
1.422363	1.664748
1.422852	1.664629
1.423340	1.664626
1.423828	1.665237
1.424316	1.664928
1.424805	1.664802
1.425293	1.664704
1.425781	1.664411
1.426270	1.664879
1.426758	1.664922
1.427246	1.664829
1.427734	1.664550
1.428223	1.664832
1.428711	1.664849
1.429199	1.664890
1.429687	1.664709
1.430176	1.664591
1.430664	1.664693
1.431152	1.664842
1.431641	1.664913
1.432129	1.664679
1.432617	1.664718
1.433105	1.664732
1.433594	1.664940
1.434082	1.665061
1.434570	1.664646
1.435059	1.664573
1.435547	1.664716
1.436035	1.664849
1.436523	1.664497
1.437012	1.664718
1.437500	1.664255
1.437988	1.664463
1.438477	1.664587
1.438965	1.664663
1.439453	1.664670
1.439941	1.664278
1.440430	1.664305
1.440918	1.664237
1.441406	1.664452
1.441895	1.664324
1.442383	1.664198
1.442871	1.664322
1.443359	1.664503
1.443848	1.664376
1.444336	1.664390
1.444824	1.664164
1.445312	1.664369
1.445801	1.664570
1.446289	1.664593
1.446777	1.664448
1.447266	1.664350
1.447754	1.664438
1.448242	1.664541
1.448730	1.664523
1.449219	1.664231
1.449707	1.664231
1.450195	1.664213
1.450684	1.664421
1.451172	1.664317
1.451660	1.664324
1.452148	1.664386
1.452637	1.664560
1.453125	1.664455
1.453613	1.664668
1.454102	1.664400
1.454590	1.664347
1.455078	1.664853
1.455566	1.664537
1.456055	1.664585
1.456543	1.664798
1.457031	1.664546
1.457520	1.664501
1.458008	1.664625
1.458496	1.664375
1.458984	1.664470
1.459473	1.664442
1.459961	1.664831
1.460449	1.664606
1.460937	1.664568
1.461426	1.664742
1.461914	1.664344
1.462402	1.664762
1.462891	1.664693
1.463379	1.664566
1.463867	1.664542
1.464355	1.664723
1.464844	1.664917
1.465332	1.664850
1.465820	1.664757
1.466309	1.664726
1.466797	1.664812
1.467285	1.664595
1.467773	1.664569
1.468262	1.664653
1.468750	1.664491
1.469238	1.664847
1.469727	1.664876
1.470215	1.664616
1.470703	1.664309
1.471191	1.664672
1.471680	1.664689
1.472168	1.664810
1.472656	1.664657
1.473145	1.664635
1.473633	1.664615
1.474121	1.664697
1.474609	1.664635
1.475098	1.664458
1.475586	1.664591
1.476074	1.664414
1.476562	1.664691
1.477051	1.664534
1.477539	1.664524
1.478027	1.664418
1.478516	1.664613
1.479004	1.664549
1.479492	1.664612
1.479980	1.664342
1.480469	1.664101
1.480957	1.664472
1.481445	1.664290
1.481934	1.664624
1.482422	1.664582
1.482910	1.664253
1.483398	1.664283
1.483887	1.664548
1.484375	1.664616
1.484863	1.664313
1.485352	1.664327
1.485840	1.664507
1.486328	1.664651
1.486816	1.664625
1.487305	1.664501
1.487793	1.664265
1.488281	1.664480
1.488770	1.664596
1.489258	1.664624
1.489746	1.664381
1.490234	1.664419
1.490723	1.664519
1.491211	1.664590
1.491699	1.664638
1.492187	1.664580
1.492676	1.664224
1.493164	1.664361
1.493652	1.664765
1.494141	1.664584
1.494629	1.664343
1.495117	1.664311
1.495605	1.664615
1.496094	1.664464
1.496582	1.664914
1.497070	1.664873
1.497559	1.664540
1.498047	1.664875
1.498535	1.664693
1.499023	1.664878
1.499512	1.664447
1.500000	1.664632
1.500488	1.664623
1.500977	1.664911
1.501465	1.664663
1.501953	1.664779
1.502441	1.664762
1.502930	1.664929
1.503418	1.665070
1.503906	1.665074
1.504395	1.664773
1.504883	1.665047
1.505371	1.665034
1.505859	1.664870
1.506348	1.664924
1.506836	1.664933
1.507324	1.664983
1.507812	1.665047
1.508301	1.665075
1.508789	1.665133
1.509277	1.664936
1.509766	1.664860
1.510254	1.665156
1.510742	1.665106
1.511230	1.664714
1.511719	1.664936
1.512207	1.665164
1.512695	1.665113
1.513184	1.665141
1.513672	1.665069
1.514160	1.665075
1.514648	1.665103
1.515137	1.665596
1.515625	1.665330
1.516113	1.665315
1.516602	1.665176
1.517090	1.665252
1.517578	1.665433
1.518066	1.665413
1.518555	1.665436
1.519043	1.665070
1.519531	1.665493
1.520020	1.665326
1.520508	1.665349
1.520996	1.665186
1.521484	1.665071
1.521973	1.665216
1.522461	1.665393
1.522949	1.665161
1.523437	1.665036
1.523926	1.665338
1.524414	1.665219
1.524902	1.665481
1.525391	1.665283
1.525879	1.665384
1.526367	1.665402
1.526855	1.665665
1.527344	1.665506
1.527832	1.665466
1.528320	1.665592
1.528809	1.665450
1.529297	1.665665
1.529785	1.665770
1.530273	1.665455
1.530762	1.665469
1.531250	1.665198
1.531738	1.665539
1.532227	1.665534
1.532715	1.665196
1.533203	1.665523
1.533691	1.665406
1.534180	1.665620
1.534668	1.665657
1.535156	1.665496
1.535645	1.665241
1.536133	1.665232
1.536621	1.665576
1.537109	1.665676
1.537598	1.665564
1.538086	1.665537
1.538574	1.665549
1.539062	1.665581
1.539551	1.665614
1.540039	1.665370
1.540527	1.665340
1.541016	1.665338
1.541504	1.665476
1.541992	1.665443
1.542480	1.665395
1.542969	1.665105
1.543457	1.665340
1.543945	1.665545
1.544434	1.665253
1.544922	1.665321
1.545410	1.665231
1.545898	1.665042
1.546387	1.665245
1.546875	1.665308
1.547363	1.664925
1.547852	1.665074
1.548340	1.665148
1.548828	1.665221
1.549316	1.665075
1.549805	1.664995
1.550293	1.664700
1.550781	1.665061
1.551270	1.665153
1.551758	1.664903
1.552246	1.664692
1.552734	1.664674
1.553223	1.664917
1.553711	1.664719
1.554199	1.664446
1.554687	1.664615
1.555176	1.664483
1.555664	1.664814
1.556152	1.664497
1.556641	1.664734
1.557129	1.664884
1.557617	1.664539
1.558105	1.664840
1.558594	1.664559
1.559082	1.664436
1.559570	1.664346
1.560059	1.664422
1.560547	1.664693
1.561035	1.664450
1.561523	1.664138
1.562012	1.664177
1.562500	1.664209
1.562988	1.664484
1.563477	1.664376
1.563965	1.664173
1.564453	1.664026
1.564941	1.664366
1.565430	1.664296
1.565918	1.664273
1.566406	1.664188
1.566895	1.664282
1.567383	1.664243
1.567871	1.664295
1.568359	1.664228
1.568848	1.664171
1.569336	1.664147
1.569824	1.664167
1.570312	1.664551
1.570801	1.664322
1.571289	1.664441
1.571777	1.664355
1.572266	1.664483
1.572754	1.664499
1.573242	1.664363
1.573730	1.664555
1.574219	1.664100
1.574707	1.664311
1.575195	1.664642
1.575684	1.664348
1.576172	1.664447
1.576660	1.664396
1.577148	1.664536
1.577637	1.664465
1.578125	1.664511
1.578613	1.664215
1.579102	1.664363
1.579590	1.664282
1.580078	1.664640
1.580566	1.664236
1.581055	1.664036
1.581543	1.664516
1.582031	1.664598
1.582520	1.664932
1.583008	1.664631
1.583496	1.664563
1.583984	1.664523
1.584473	1.664973
1.584961	1.664728
1.585449	1.664706
1.585937	1.664573
1.586426	1.664853
1.586914	1.664954
1.587402	1.664926
1.587891	1.664950
1.588379	1.664712
1.588867	1.665021
1.589355	1.665080
1.589844	1.665005
1.590332	1.664729
1.590820	1.664762
1.591309	1.664990
1.591797	1.665153
1.592285	1.664944
1.592773	1.664722
1.593262	1.665138
1.593750	1.665098
1.594238	1.665255
1.594727	1.665191
1.595215	1.664987
1.595703	1.665247
1.596191	1.665200
1.596680	1.665398
1.597168	1.665423
1.597656	1.665120
1.598145	1.665150
1.598633	1.665467
1.599121	1.665777
1.599609	1.665425
1.600098	1.665371
1.600586	1.665172
1.601074	1.665468
1.601562	1.665455
1.602051	1.665504
1.602539	1.665186
1.603027	1.665252
1.603516	1.665409
1.604004	1.665334
1.604492	1.665457
1.604980	1.665291
1.605469	1.665720
1.605957	1.665673
1.606445	1.665750
1.606934	1.665471
1.607422	1.665540
1.607910	1.665427
1.608398	1.665684
1.608887	1.665626
1.609375	1.665673
1.609863	1.665487
1.610352	1.665530
1.610840	1.665908
1.611328	1.665524
1.611816	1.665715
1.612305	1.665569
1.612793	1.665569
1.613281	1.665611
1.613770	1.665600
1.614258	1.665321
1.614746	1.665481
1.615234	1.665484
1.615723	1.665380
1.616211	1.665607
1.616699	1.665406
1.617187	1.665184
1.617676	1.665313
1.618164	1.665572
1.618652	1.665458
1.619141	1.665540
1.619629	1.665232
1.620117	1.665412
1.620605	1.665449
1.621094	1.665697
1.621582	1.665122
1.622070	1.665255
1.622559	1.665266
1.623047	1.665521
1.623535	1.665471
1.624023	1.665002
1.624512	1.665418
1.625000	1.665397
1.625488	1.665365
1.625977	1.665262
1.626465	1.665287
1.626953	1.665420
1.627441	1.665027
1.627930	1.665338
1.628418	1.665492
1.628906	1.665072
1.629395	1.665337
1.629883	1.665377
1.630371	1.665226
1.630859	1.664894
1.631348	1.664933
1.631836	1.665160
1.632324	1.665189
1.632812	1.664906
1.633301	1.664818
1.633789	1.664832
1.634277	1.665073
1.634766	1.665158
1.635254	1.664933
1.635742	1.664895
1.636230	1.664862
1.636719	1.665165
1.637207	1.665121
1.637695	1.664956
1.638184	1.664840
1.638672	1.665045
1.639160	1.664873
1.639648	1.665006
1.640137	1.665102
1.640625	1.664640
1.641113	1.664820
1.641602	1.664939
1.642090	1.664941
1.642578	1.664882
1.643066	1.664986
1.643555	1.664666
1.644043	1.664751
1.644531	1.664689
1.645020	1.664886
1.645508	1.664496
1.645996	1.664728
1.646484	1.664659
1.646973	1.664987
1.647461	1.664631
1.647949	1.664617
1.648437	1.664753
1.648926	1.664919
1.649414	1.665110
1.649902	1.664820
1.650391	1.664772
1.650879	1.664787
1.651367	1.664883
1.651855	1.664908
1.652344	1.664979
1.652832	1.664535
1.653320	1.664797
1.653809	1.664892
1.654297	1.664952
1.654785	1.664582
1.655273	1.664695
1.655762	1.664922
1.656250	1.664826
1.656738	1.664981
1.657227	1.664709
1.657715	1.664686
1.658203	1.664598
1.658691	1.664471
1.659180	1.664873
1.659668	1.664533
1.660156	1.664446
1.660645	1.664658
1.661133	1.665016
1.661621	1.664643
1.662109	1.664592
1.662598	1.664695
1.663086	1.664867
1.663574	1.664899
1.664062	1.664802
1.664551	1.664676
1.665039	1.664842
1.665527	1.664908
1.666016	1.665211
1.666504	1.664930
1.666992	1.664714
1.667480	1.664930
1.667969	1.664886
1.668457	1.664991
1.668945	1.664786
1.669434	1.664655
1.669922	1.664618
1.670410	1.664407
1.670898	1.664967
1.671387	1.664686
1.671875	1.664493
1.672363	1.664793
1.672852	1.664940
1.673340	1.664856
1.673828	1.664669
1.674316	1.664687
1.674805	1.664659
1.675293	1.665044
1.675781	1.664826
1.676270	1.664947
1.676758	1.665000
1.677246	1.665294
1.677734	1.665355
1.678223	1.665134
1.678711	1.665020
1.679199	1.665241
1.679687	1.665277
1.680176	1.665278
1.680664	1.665407
1.681152	1.665257
1.681641	1.665099
1.682129	1.665498
1.682617	1.665340
1.683105	1.665222
1.683594	1.664947
1.684082	1.665077
1.684570	1.665304
1.685059	1.665468
1.685547	1.665180
1.686035	1.665068
1.686523	1.665401
1.687012	1.665503
1.687500	1.665358
1.687988	1.665334
1.688477	1.665135
1.688965	1.665164
1.689453	1.665397
1.689941	1.665363
1.690430	1.665275
1.690918	1.665515
1.691406	1.665551
1.691895	1.665368
1.692383	1.665739
1.692871	1.665368
1.693359	1.665239
1.693848	1.665280
1.694336	1.665669
1.694824	1.665380
1.695312	1.665504
1.695801	1.665515
1.696289	1.665437
1.696777	1.665647
1.697266	1.665523
1.697754	1.665510
1.698242	1.665237
1.698730	1.665198
1.699219	1.665675
1.699707	1.665462
1.700195	1.665175
1.700684	1.665163
1.701172	1.665224
1.701660	1.665529
1.702148	1.665710
1.702637	1.665261
1.703125	1.665606
1.703613	1.665299
1.704102	1.665331
1.704590	1.665485
1.705078	1.665270
1.705566	1.665136
1.706055	1.665508
1.706543	1.665431
1.707031	1.665460
1.707520	1.665285
1.708008	1.665234
1.708496	1.665570
1.708984	1.665397
1.709473	1.665648
1.709961	1.665096
1.710449	1.665023
1.710937	1.665327
1.711426	1.665135
1.711914	1.665095
1.712402	1.665111
1.712891	1.664928
1.713379	1.664972
1.713867	1.665436
1.714355	1.665027
1.714844	1.664914
1.715332	1.664891
1.715820	1.665149
1.716309	1.665348
1.716797	1.664985
1.717285	1.665046
1.717773	1.665217
1.718262	1.665144
1.718750	1.665229
1.719238	1.665180
1.719727	1.664919
1.720215	1.665389
1.720703	1.665316
1.721191	1.665409
1.721680	1.665316
1.722168	1.665219
1.722656	1.665161
1.723145	1.665277
1.723633	1.665479
1.724121	1.665237
1.724609	1.665085
1.725098	1.665221
1.725586	1.665128
1.726074	1.665242
1.726562	1.665209
1.727051	1.665132
1.727539	1.665157
1.728027	1.665407
1.728516	1.665528
1.729004	1.665251
1.729492	1.665300
1.729980	1.665282
1.730469	1.665166
1.730957	1.665063
1.731445	1.665011
1.731934	1.665138
1.732422	1.664923
1.732910	1.665337
1.733398	1.665097
1.733887	1.664960
1.734375	1.664853
1.734863	1.665158
1.735352	1.664972
1.735840	1.665141
1.736328	1.665005
1.736816	1.664974
1.737305	1.665008
1.737793	1.664937
1.738281	1.665169
1.738770	1.664856
1.739258	1.665047
1.739746	1.665119
1.740234	1.664909
1.740723	1.664986
1.741211	1.664607
1.741699	1.664793
1.742187	1.664620
1.742676	1.664852
1.743164	1.664970
1.743652	1.664631
1.744141	1.664699
1.744629	1.664831
1.745117	1.665020
1.745605	1.664575
1.746094	1.664454
1.746582	1.664953
1.747070	1.665037
1.747559	1.664784
1.748047	1.664692
1.748535	1.664777
1.749023	1.664861
1.749512	1.664882
1.750000	1.664746
1.750488	1.664748
1.750977	1.664611
1.751465	1.665036
1.751953	1.664711
1.752441	1.664639
1.752930	1.664573
1.753418	1.664346
1.753906	1.664638
1.754395	1.664608
1.754883	1.664706
1.755371	1.664479
1.755859	1.664718
1.756348	1.664752
1.756836	1.664945
1.757324	1.664867
1.757812	1.664873
1.758301	1.664709
1.758789	1.664803
1.759277	1.665032
1.759766	1.664878
1.760254	1.664836
1.760742	1.664933
1.761230	1.664955
1.761719	1.665043
1.762207	1.665043
1.762695	1.664785
1.763184	1.664615
1.763672	1.665003
1.764160	1.664972
1.764648	1.664826
1.765137	1.664839
1.765625	1.664734
1.766113	1.665045
1.766602	1.665083
1.767090	1.665128
1.767578	1.664702
1.768066	1.665024
1.768555	1.664847
1.769043	1.665007
1.769531	1.664840
1.770020	1.664682
1.770508	1.665056
1.770996	1.665100
1.771484	1.665091
1.771973	1.664953
1.772461	1.664603
1.772949	1.665169
1.773437	1.664889
1.773926	1.665172
1.774414	1.665163
1.774902	1.665033
1.775391	1.665138
1.775879	1.665106
1.776367	1.665113
1.776855	1.665172
1.777344	1.665024
1.777832	1.665462
1.778320	1.665192
1.778809	1.665285
1.779297	1.664982
1.779785	1.665085
1.780273	1.665117
1.780762	1.665415
1.781250	1.665206
1.781738	1.665082
1.782227	1.665180
1.782715	1.665363
1.783203	1.665177
1.783691	1.665161
1.784180	1.665099
1.784668	1.665255
1.785156	1.665476
1.785645	1.665582
1.786133	1.665582
1.786621	1.665352
1.787109	1.665510
1.787598	1.665662
1.788086	1.665666
1.788574	1.665429
1.789062	1.665356
1.789551	1.665480
1.790039	1.665510
1.790527	1.665391
1.791016	1.665510
1.791504	1.664928
1.791992	1.665205
1.792480	1.665571
1.792969	1.665349
1.793457	1.665245
1.793945	1.665370
1.794434	1.665341
1.794922	1.665556
1.795410	1.665528
1.795898	1.665396
1.796387	1.665528
1.796875	1.665669
1.797363	1.665622
1.797852	1.665776
1.798340	1.665442
1.798828	1.665592
1.799316	1.665703
1.799805	1.665651
1.800293	1.665715
1.800781	1.665363
1.801270	1.665449
1.801758	1.665606
1.802246	1.665736
1.802734	1.665730
1.803223	1.665586
1.803711	1.665515
1.804199	1.665795
1.804687	1.665553
1.805176	1.665684
1.805664	1.665446
1.806152	1.665460
1.806641	1.665584
1.807129	1.665858
1.807617	1.665428
1.808105	1.665262
1.808594	1.665573
1.809082	1.665411
1.809570	1.665919
1.810059	1.665575
1.810547	1.665431
1.811035	1.665546
1.811523	1.665459
1.812012	1.665537
1.812500	1.665554
1.812988	1.665096
1.813477	1.665421
1.813965	1.665449
1.814453	1.665429
1.814941	1.665503
1.815430	1.665117
1.815918	1.665562
1.816406	1.665545
1.816895	1.665786
1.817383	1.665529
1.817871	1.665091
1.818359	1.665597
1.818848	1.665400
1.819336	1.665281
1.819824	1.665178
1.820312	1.665298
1.820801	1.665550
1.821289	1.665329
1.821777	1.665460
1.822266	1.665317
1.822754	1.665070
1.823242	1.665437
1.823730	1.665450
1.824219	1.665385
1.824707	1.665184
1.825195	1.665248
1.825684	1.665468
1.826172	1.665420
1.826660	1.665408
1.827148	1.665418
1.827637	1.665247
1.828125	1.665871
1.828613	1.665510
1.829102	1.665578
1.829590	1.665231
1.830078	1.665261
1.830566	1.665362
1.831055	1.665568
1.831543	1.665067
1.832031	1.665125
1.832520	1.665059
1.833008	1.665290
1.833496	1.665244
1.833984	1.665122
1.834473	1.665190
1.834961	1.665193
1.835449	1.665303
1.835937	1.665116
1.836426	1.665221
1.836914	1.665197
1.837402	1.665066
1.837891	1.665210
1.838379	1.665534
1.838867	1.664793
1.839355	1.665097
1.839844	1.665192
1.840332	1.665319
1.840820	1.665274
1.841309	1.665174
1.841797	1.665398
1.842285	1.665152
1.842773	1.665221
1.843262	1.665222
1.843750	1.664959
1.844238	1.665094
1.844727	1.665019
1.845215	1.665254
1.845703	1.664966
1.846191	1.665166
1.846680	1.665222
1.847168	1.664998
1.847656	1.665247
1.848145	1.665019
1.848633	1.665072
1.849121	1.665083
1.849609	1.665282
1.850098	1.665207
1.850586	1.665167
1.851074	1.665174
1.851562	1.664834
1.852051	1.665169
1.852539	1.664917
1.853027	1.664930
1.853516	1.664773
1.854004	1.665027
1.854492	1.665025
1.854980	1.665103
1.855469	1.664965
1.855957	1.664757
1.856445	1.665080
1.856934	1.665072
1.857422	1.664961
1.857910	1.664732
1.858398	1.664710
1.858887	1.664828
1.859375	1.664853
1.859863	1.665111
1.860352	1.664872
1.860840	1.664777
1.861328	1.664728
1.861816	1.664744
1.862305	1.664852
1.862793	1.664720
1.863281	1.664590
1.863770	1.664755
1.864258	1.664941
1.864746	1.664805
1.865234	1.665064
1.865723	1.664860
1.866211	1.665028
1.866699	1.665337
1.867187	1.665203
1.867676	1.665086
1.868164	1.664911
1.868652	1.664999
1.869141	1.665258
1.869629	1.664961
1.870117	1.664828
1.870605	1.664998
1.871094	1.665087
1.871582	1.665080
1.872070	1.664916
1.872559	1.664865
1.873047	1.664715
1.873535	1.665044
1.874023	1.665108
1.874512	1.664980
1.875000	1.664850
1.875488	1.664891
1.875977	1.664857
1.876465	1.664909
1.876953	1.665007
1.877441	1.664745
1.877930	1.664732
1.878418	1.664967
1.878906	1.664983
1.879395	1.664754
1.879883	1.664676
1.880371	1.664817
1.880859	1.664997
1.881348	1.664985
1.881836	1.664738
1.882324	1.664895
1.882812	1.665013
1.883301	1.664922
1.883789	1.664746
1.884277	1.664919
1.884766	1.664806
1.885254	1.664851
1.885742	1.664939
1.886230	1.665186
1.886719	1.664976
1.887207	1.664921
1.887695	1.664986
1.888184	1.665150
1.888672	1.665015
1.889160	1.664842
1.889648	1.664900
1.890137	1.665067
1.890625	1.664919
1.891113	1.664968
1.891602	1.665013
1.892090	1.664651
1.892578	1.665183
1.893066	1.665307
1.893555	1.665118
1.894043	1.665003
1.894531	1.665022
1.895020	1.665307
1.895508	1.665193
1.895996	1.665096
1.896484	1.665077
1.896973	1.665066
1.897461	1.665225
1.897949	1.665303
1.898437	1.665001
1.898926	1.665127
1.899414	1.664920
1.899902	1.665042
1.900391	1.665059
1.900879	1.664755
1.901367	1.664939
1.901855	1.665002
1.902344	1.665191
1.902832	1.665017
1.903320	1.664936
1.903809	1.665171
1.904297	1.664920
1.904785	1.665249
1.905273	1.665106
1.905762	1.664898
1.906250	1.664859
1.906738	1.665257
1.907227	1.665412
1.907715	1.665261
1.908203	1.665460
1.908691	1.665085
1.909180	1.665411
1.909668	1.665310
1.910156	1.665226
1.910645	1.665061
1.911133	1.665166
1.911621	1.665362
1.912109	1.665276
1.912598	1.665690
1.913086	1.665406
1.913574	1.665449
1.914062	1.665520
1.914551	1.665631
1.915039	1.665460
1.915527	1.665382
1.916016	1.665423
1.916504	1.665687
1.916992	1.665573
1.917480	1.665521
1.917969	1.665333
1.918457	1.665379
1.918945	1.665560
1.919434	1.665341
1.919922	1.665432
1.920410	1.665435
1.920898	1.665486
1.921387	1.665479
1.921875	1.665601
1.922363	1.665408
1.922852	1.665559
1.923340	1.665399
1.923828	1.665449
1.924316	1.665298
1.924805	1.665301
1.925293	1.665171
1.925781	1.665129
1.926270	1.665523
1.926758	1.665545
1.927246	1.665300
1.927734	1.665252
1.928223	1.665199
1.928711	1.665330
1.929199	1.665261
1.929687	1.665192
1.930176	1.665141
1.930664	1.665261
1.931152	1.665438
1.931641	1.665534
1.932129	1.665252
1.932617	1.665131
1.933105	1.665312
1.933594	1.665412
1.934082	1.665348
1.934570	1.665189
1.935059	1.665171
1.935547	1.665337
1.936035	1.665390
1.936523	1.665300
1.937012	1.665412
1.937500	1.665056
1.937988	1.665544
1.938477	1.665670
1.938965	1.665278
1.939453	1.665101
1.939941	1.665027
1.940430	1.665281
1.940918	1.665366
1.941406	1.664988
1.941895	1.665327
1.942383	1.665204
1.942871	1.665435
1.943359	1.665401
1.943848	1.665272
1.944336	1.665221
1.944824	1.665316
1.945312	1.665454
1.945801	1.665714
1.946289	1.665328
1.946777	1.665379
1.947266	1.665626
1.947754	1.665628
1.948242	1.665748
1.948730	1.665637
1.949219	1.665551
1.949707	1.665672
1.950195	1.665640
1.950684	1.665599
1.951172	1.665598
1.951660	1.665521
1.952148	1.665732
1.952637	1.665552
1.953125	1.665573
1.953613	1.665534
1.954102	1.665271
1.954590	1.665411
1.955078	1.665665
1.955566	1.665603
1.956055	1.665393
1.956543	1.665514
1.957031	1.665640
1.957520	1.665675
1.958008	1.665556
1.958496	1.665116
1.958984	1.665585
1.959473	1.665617
1.959961	1.665989
1.960449	1.665464
1.960937	1.665705
1.961426	1.665881
1.961914	1.665819
1.962402	1.665874
1.962891	1.665690
1.963379	1.665598
1.963867	1.665421
1.964355	1.665722
1.964844	1.665550
1.965332	1.665638
1.965820	1.665412
1.966309	1.665694
1.966797	1.665451
1.967285	1.665789
1.967773	1.665613
1.968262	1.665499
1.968750	1.665498
1.969238	1.665630
1.969727	1.665640
1.970215	1.665516
1.970703	1.665505
1.971191	1.665411
1.971680	1.665676
1.972168	1.665437
1.972656	1.665565
1.973145	1.665377
1.973633	1.665522
1.974121	1.665745
1.974609	1.665673
1.975098	1.665376
1.975586	1.665479
1.976074	1.665604
1.976562	1.665539
1.977051	1.665669
1.977539	1.665464
1.978027	1.665456
1.978516	1.665676
1.979004	1.665734
1.979492	1.665572
1.979980	1.665311
1.980469	1.665460
1.980957	1.665547
1.981445	1.665426
1.981934	1.665332
1.982422	1.665352
1.982910	1.665397
1.983398	1.665418
1.983887	1.665710
1.984375	1.665427
1.984863	1.665435
1.985352	1.665429
1.985840	1.665343
1.986328	1.665706
1.986816	1.665678
1.987305	1.665461
1.987793	1.665483
1.988281	1.665604
1.988770	1.665823
1.989258	1.665214
1.989746	1.665426
1.990234	1.665149
1.990723	1.665409
1.991211	1.665298
1.991699	1.665391
1.992187	1.665484
1.992676	1.665515
1.993164	1.665736
1.993652	1.665549
1.994141	1.665435
1.994629	1.665263
1.995117	1.665385
1.995605	1.665575
1.996094	1.665683
1.996582	1.665351
1.997070	1.665432
1.997559	1.665638
1.998047	1.665658
1.998535	1.665585
1.999023	1.665310
1.999512	1.665320
2.000000	1.665488
2.000488	1.665498
2.000977	1.665431
2.001465	1.665287
2.001953	1.665325
2.002441	1.665640
2.002930	1.665470
2.003418	1.665612
2.003906	1.665309
2.004395	1.665492
2.004883	1.665460
2.005371	1.665664
2.005859	1.665343
2.006348	1.665404
2.006836	1.665487
2.007324	1.665434
2.007812	1.665543
2.008301	1.665407
2.008789	1.665220
2.009277	1.665281
2.009766	1.665424
2.010254	1.665362
2.010742	1.665239
2.011230	1.665307
2.011719	1.665548
2.012207	1.665577
2.012695	1.665440
2.013184	1.665423
2.013672	1.665351
2.014160	1.665235
2.014648	1.665519
2.015137	1.665878
2.015625	1.665406
2.016113	1.665434
2.016602	1.665377
2.017090	1.665758
2.017578	1.665285
2.018066	1.665306
2.018555	1.665268
2.019043	1.665237
2.019531	1.665639
2.020020	1.665404
2.020508	1.665057
2.020996	1.664961
2.021484	1.665154
2.021973	1.665493
2.022461	1.665146
2.022949	1.665337
2.023437	1.665415
2.023926	1.665381
2.024414	1.665659
2.024902	1.665391
2.025391	1.665478
2.025879	1.665285
2.026367	1.665431
2.026855	1.665727
2.027344	1.665653
2.027832	1.665330
2.028320	1.665529
2.028809	1.665759
2.029297	1.665787
2.029785	1.665830
2.030273	1.665576
2.030762	1.665732
2.031250	1.665756
2.031738	1.665935
2.032227	1.665770
2.032715	1.665808
2.033203	1.665798
2.033691	1.665912
2.034180	1.665949
2.034668	1.665813
2.035156	1.665651
2.035645	1.665896
2.036133	1.665745
2.036621	1.665942
2.037109	1.665974
2.037598	1.665717
2.038086	1.665921
2.038574	1.665986
2.039062	1.665914
2.039551	1.665891
2.040039	1.665608
2.040527	1.666008
2.041016	1.666033
2.041504	1.666034
2.041992	1.665987
2.042480	1.665964
2.042969	1.666206
2.043457	1.666309
2.043945	1.666027
2.044434	1.665813
2.044922	1.666008
2.045410	1.666169
2.045898	1.666078
2.046387	1.666051
2.046875	1.666213
2.047363	1.665931
2.047852	1.665958
2.048340	1.666226
2.048828	1.666004
2.049316	1.665876
2.049805	1.665780
2.050293	1.666013
2.050781	1.665972
2.051270	1.665825
2.051758	1.665989
2.052246	1.665980
2.052734	1.666028
2.053223	1.665957
2.053711	1.665985
2.054199	1.665785
2.054687	1.665953
2.055176	1.666127
2.055664	1.666027
2.056152	1.666117
2.056641	1.665856
2.057129	1.666077
2.057617	1.666107
2.058105	1.665988
2.058594	1.665629
2.059082	1.665637
2.059570	1.665723
2.060059	1.665955
2.060547	1.665827
2.061035	1.665539
2.061523	1.665737
2.062012	1.665593
2.062500	1.665742
2.062988	1.665526
2.063477	1.665321
2.063965	1.665523
2.064453	1.665514
2.064941	1.665843
2.065430	1.665642
2.065918	1.665507
2.066406	1.665504
2.066895	1.665721
2.067383	1.665886
2.067871	1.665433
2.068359	1.665514
2.068848	1.665510
2.069336	1.665587
2.069824	1.665587
2.070312	1.665539
2.070801	1.665227
2.071289	1.665413
2.071777	1.665390
2.072266	1.665429
2.072754	1.665324
2.073242	1.665077
2.073730	1.665164
2.074219	1.665240
2.074707	1.665219
2.075195	1.665246
2.075684	1.664997
2.076172	1.664983
2.076660	1.665126
2.077148	1.665083
2.077637	1.665211
2.078125	1.664786
2.078613	1.665105
2.079102	1.665262
2.079590	1.665082
2.080078	1.665108
2.080566	1.664831
2.081055	1.665152
2.081543	1.664870
2.082031	1.664959
2.082520	1.665155
2.083008	1.664919
2.083496	1.664976
2.083984	1.665241
2.084473	1.665138
2.084961	1.664873
2.085449	1.665108
2.085937	1.665151
2.086426	1.665211
2.086914	1.665054
2.087402	1.664986
2.087891	1.664854
2.088379	1.665053
2.088867	1.665031
2.089355	1.665104
2.089844	1.664834
2.090332	1.665006
2.090820	1.665069
2.091309	1.665087
2.091797	1.665108
2.092285	1.664759
2.092773	1.664877
2.093262	1.665177
2.093750	1.665332
2.094238	1.665181
2.094727	1.665081
2.095215	1.665294
2.095703	1.665325
2.096191	1.665144
2.096680	1.665442
2.097168	1.665020
2.097656	1.665307
2.098145	1.665376
2.098633	1.665622
2.099121	1.665560
2.099609	1.665199
2.100098	1.665306
2.100586	1.665172
2.101074	1.665391
2.101562	1.665088
2.102051	1.665107
2.102539	1.665078
2.103027	1.665323
2.103516	1.665265
2.104004	1.665181
2.104492	1.665185
2.104980	1.665367
2.105469	1.665457
2.105957	1.665264
2.106445	1.665357
2.106934	1.665379
2.107422	1.665258
2.107910	1.665696
2.108398	1.665675
2.108887	1.665672
2.109375	1.665541
2.109863	1.665699
2.110352	1.665540
2.110840	1.665663
2.111328	1.665496
2.111816	1.665561
2.112305	1.665551
2.112793	1.665741
2.113281	1.665566
2.113770	1.665514
2.114258	1.665476
2.114746	1.665590
2.115234	1.665540
2.115723	1.665521
2.116211	1.665292
2.116699	1.665293
2.117187	1.665600
2.117676	1.665549
2.118164	1.665501
2.118652	1.665319
2.119141	1.665374
2.119629	1.665499
2.120117	1.665442
2.120605	1.665490
2.121094	1.665377
2.121582	1.665631
2.122070	1.665535
2.122559	1.665766
2.123047	1.665646
2.123535	1.665541
2.124023	1.665464
2.124512	1.665648
2.125000	1.665733
2.125488	1.665537
2.125977	1.665269
2.126465	1.665624
2.126953	1.665519
2.127441	1.665492
2.127930	1.665525
2.128418	1.665088
2.128906	1.665319
2.129395	1.665367
2.129883	1.665155
2.130371	1.664908
2.130859	1.665423
2.131348	1.665296
2.131836	1.665730
2.132324	1.665461
2.132812	1.665363
2.133301	1.665165
2.133789	1.665520
2.134277	1.665439
2.134766	1.665539
2.135254	1.665232
2.135742	1.665314
2.136230	1.665557
2.136719	1.665650
2.137207	1.665896
2.137695	1.665353
2.138184	1.665438
2.138672	1.665637
2.139160	1.665672
2.139648	1.665307
2.140137	1.665196
2.140625	1.665215
2.141113	1.665747
2.141602	1.665418
2.142090	1.665306
2.142578	1.665026
2.143066	1.665283
2.143555	1.665392
2.144043	1.665231
2.144531	1.665240
2.145020	1.665156
2.145508	1.665025
2.145996	1.665183
2.146484	1.664938
2.146973	1.665301
2.147461	1.664748
2.147949	1.665193
2.148437	1.665458
2.148926	1.665299
2.149414	1.665266
2.149902	1.665210
2.150391	1.665199
2.150879	1.665360
2.151367	1.665166
2.151855	1.665281
2.152344	1.665173
2.152832	1.665229
2.153320	1.665277
2.153809	1.665153
2.154297	1.665159
2.154785	1.664825
2.155273	1.665078
2.155762	1.664973
2.156250	1.665136
2.156738	1.664863
2.157227	1.665192
2.157715	1.665020
2.158203	1.665146
2.158691	1.665050
2.159180	1.664975
2.159668	1.664856
2.160156	1.664837
2.160645	1.665060
2.161133	1.665089
2.161621	1.664920
2.162109	1.664907
2.162598	1.665196
2.163086	1.665117
2.163574	1.664980
2.164062	1.664906
2.164551	1.665075
2.165039	1.665213
2.165527	1.665142
2.166016	1.665018
2.166504	1.664857
2.166992	1.665205
2.167480	1.664980
2.167969	1.665109
2.168457	1.664699
2.168945	1.664987
2.169434	1.664777
2.169922	1.665095
2.170410	1.664922
2.170898	1.664894
2.171387	1.664895
2.171875	1.665003
2.172363	1.665081
2.172852	1.664989
2.173340	1.664796
2.173828	1.664970
2.174316	1.664988
2.174805	1.665070
2.175293	1.665144
2.175781	1.664874
2.176270	1.665030
2.176758	1.665008
2.177246	1.665238
2.177734	1.665155
2.178223	1.665063
2.178711	1.665047
2.179199	1.665097
2.179687	1.665291
2.180176	1.665241
2.180664	1.664964
2.181152	1.665035
2.181641	1.665182
2.182129	1.665051
2.182617	1.665143
2.183105	1.664732
2.183594	1.664930
2.184082	1.665063
2.184570	1.665196
2.185059	1.665328
2.185547	1.664914
2.186035	1.664947
2.186523	1.665243
2.187012	1.665416
2.187500	1.665205
2.187988	1.665094
2.188477	1.665108
2.188965	1.665278
2.189453	1.665287
2.189941	1.665094
2.190430	1.665049
2.190918	1.665327
2.191406	1.665358
2.191895	1.665194
2.192383	1.665277
2.192871	1.665158
2.193359	1.665077
2.193848	1.665141
2.194336	1.665293
2.194824	1.665075
2.195312	1.664894
2.195801	1.665330
2.196289	1.665196
2.196777	1.665332
2.197266	1.665078
2.197754	1.664862
2.198242	1.665216
2.198730	1.665224
2.199219	1.665136
2.199707	1.664969
2.200195	1.665061
2.200684	1.664950
2.201172	1.665254
2.201660	1.665158
2.202148	1.665104
2.202637	1.665091
2.203125	1.665186
2.203613	1.665278
2.204102	1.665069
2.204590	1.665080
2.205078	1.665313
2.205566	1.665287
2.206055	1.665293
2.206543	1.665106
2.207031	1.665299
2.207520	1.664897
2.208008	1.665117
2.208496	1.665200
2.208984	1.665003
2.209473	1.664994
2.209961	1.665084
2.210449	1.665208
2.210937	1.665069
2.211426	1.665185
2.211914	1.664806
2.212402	1.664854
2.212891	1.665169
2.213379	1.665113
2.213867	1.664933
2.214355	1.664774
2.214844	1.665087
2.215332	1.665309
2.215820	1.664839
2.216309	1.665119
2.216797	1.664975
2.217285	1.665095
2.217773	1.665226
2.218262	1.665243
2.218750	1.665562
2.219238	1.665062
2.219727	1.665131
2.220215	1.665217
2.220703	1.664982
2.221191	1.665067
2.221680	1.664884
2.222168	1.665194
2.222656	1.665170
2.223145	1.665058
2.223633	1.664683
2.224121	1.664850
2.224609	1.664951
2.225098	1.665040
2.225586	1.665045
2.226074	1.665036
2.226562	1.664823
2.227051	1.664918
2.227539	1.664962
2.228027	1.665057
2.228516	1.665085
2.229004	1.664837
2.229492	1.665320
2.229980	1.664996
2.230469	1.664981
2.230957	1.665072
2.231445	1.664933
2.231934	1.665287
2.232422	1.665167
2.232910	1.665180
2.233398	1.665158
2.233887	1.664939
2.234375	1.665138
2.234863	1.665283
2.235352	1.665163
2.235840	1.665024
2.236328	1.664962
2.236816	1.665364
2.237305	1.665230
2.237793	1.664980
2.238281	1.664907
2.238770	1.664626
2.239258	1.665182
2.239746	1.664911
2.240234	1.665007
2.240723	1.664607
2.241211	1.665186
2.241699	1.665295
2.242187	1.664958
2.242676	1.665049
2.243164	1.664668
2.243652	1.665038
2.244141	1.665304
2.244629	1.665047
2.245117	1.665266
2.245605	1.665009
2.246094	1.665032
2.246582	1.665197
2.247070	1.665049
2.247559	1.664864
2.248047	1.664692
2.248535	1.665118
2.249023	1.665072
2.249512	1.665085
2.250000	1.664731
2.250488	1.664853
2.250977	1.664843
2.251465	1.664833
2.251953	1.664859
2.252441	1.664625
2.252930	1.664713
2.253418	1.664987
2.253906	1.664920
2.254395	1.664976
2.254883	1.664634
2.255371	1.664938
2.255859	1.664878
2.256348	1.664933
2.256836	1.665169
2.257324	1.664864
2.257812	1.665144
2.258301	1.665065
2.258789	1.665121
2.259277	1.665012
2.259766	1.664669
2.260254	1.664876
2.260742	1.665051
2.261230	1.664861
2.261719	1.664896
2.262207	1.664750
2.262695	1.664735
2.263184	1.664913
2.263672	1.664905
2.264160	1.665092
2.264648	1.664768
2.265137	1.664718
2.265625	1.665037
2.266113	1.665086
2.266602	1.664857
2.267090	1.664928
2.267578	1.664952
2.268066	1.665206
2.268555	1.665197
2.269043	1.664933
2.269531	1.664911
2.270020	1.665006
2.270508	1.665213
2.270996	1.665038
2.271484	1.664850
2.271973	1.664866
2.272461	1.664773
2.272949	1.665202
2.273437	1.664490
2.273926	1.664887
2.274414	1.664948
2.274902	1.665106
2.275391	1.664953
2.275879	1.665020
2.276367	1.664862
2.276855	1.665045
2.277344	1.665280
2.277832	1.664858
2.278320	1.664914
2.278809	1.664634
2.279297	1.664959
2.279785	1.664909
2.280273	1.665044
2.280762	1.665213
2.281250	1.664734
2.281738	1.664861
2.282227	1.665025
2.282715	1.665132
2.283203	1.664873
2.283691	1.664934
2.284180	1.664970
2.284668	1.665046
2.285156	1.665053
2.285645	1.664998
2.286133	1.664931
2.286621	1.664836
2.287109	1.665380
2.287598	1.665125
2.288086	1.665030
2.288574	1.664888
2.289062	1.665081
2.289551	1.665099
2.290039	1.665171
2.290527	1.664834
2.291016	1.664790
2.291504	1.665086
2.291992	1.665133
2.292480	1.664890
2.292969	1.664706
2.293457	1.664884
2.293945	1.664896
2.294434	1.665208
2.294922	1.664944
2.295410	1.664677
2.295898	1.664851
2.296387	1.664948
2.296875	1.665028
2.297363	1.665144
2.297852	1.665053
2.298340	1.664981
2.298828	1.665147
2.299316	1.665125
2.299805	1.664995
2.300293	1.664953
2.300781	1.664733
2.301270	1.665025
2.301758	1.665348
2.302246	1.665141
2.302734	1.665184
2.303223	1.665121
2.303711	1.665219
2.304199	1.665252
2.304687	1.665235
2.305176	1.665059
2.305664	1.665071
2.306152	1.665174
2.306641	1.665283
2.307129	1.665026
2.307617	1.665042
2.308105	1.665019
2.308594	1.665313
2.309082	1.665078
2.309570	1.665182
2.310059	1.664773
2.310547	1.665105
2.311035	1.665312
2.311523	1.665341
2.312012	1.665225
2.312500	1.665006
2.312988	1.665084
2.313477	1.665269
2.313965	1.665234
2.314453	1.664930
2.314941	1.664976
2.315430	1.665298
2.315918	1.665274
2.316406	1.665349
2.316895	1.665048
2.317383	1.664989
2.317871	1.665222
2.318359	1.665288
2.318848	1.665130
2.319336	1.665103
2.319824	1.664900
2.320312	1.665053
2.320801	1.665346
2.321289	1.665053
2.321777	1.665290
2.322266	1.665130
2.322754	1.665315
2.323242	1.665420
2.323730	1.665355
2.324219	1.665194
2.324707	1.665181
2.325195	1.665445
2.325684	1.665529
2.326172	1.665255
2.326660	1.665150
2.327148	1.665270
2.327637	1.665351
2.328125	1.665164
2.328613	1.665236
2.329102	1.665105
2.329590	1.665027
2.330078	1.665199
2.330566	1.665048
2.331055	1.664919
2.331543	1.664796
2.332031	1.664945
2.332520	1.665116
2.333008	1.664914
2.333496	1.664790
2.333984	1.664883
2.334473	1.664981
2.334961	1.665177
2.335449	1.664902
2.335937	1.664931
2.336426	1.664773
2.336914	1.665163
2.337402	1.665296
2.337891	1.665080
2.338379	1.665020
2.338867	1.664920
2.339355	1.665091
2.339844	1.665129
2.340332	1.664849
2.340820	1.664950
2.341309	1.664947
2.341797	1.665049
2.342285	1.665239
2.342773	1.664941
2.343262	1.664938
2.343750	1.664637
2.344238	1.664904
2.344727	1.664825
2.345215	1.664881
2.345703	1.664554
2.346191	1.664986
2.346680	1.664872
2.347168	1.665150
2.347656	1.664969
2.348145	1.664629
2.348633	1.664843
2.349121	1.664781
2.349609	1.665138
2.350098	1.664601
2.350586	1.664568
2.351074	1.664726
2.351562	1.664873
2.352051	1.664955
2.352539	1.664785
2.353027	1.664856
2.353516	1.664897
2.354004	1.664770
2.354492	1.665222
2.354980	1.664980
2.355469	1.664823
2.355957	1.665042
2.356445	1.665282
2.356934	1.665166
2.357422	1.664740
2.357910	1.664749
2.358398	1.665014
2.358887	1.665150
2.359375	1.665031
2.359863	1.664980
2.360352	1.664870
2.360840	1.664842
2.361328	1.665105
2.361816	1.665348
2.362305	1.664942
2.362793	1.665133
2.363281	1.665064
2.363770	1.665185
2.364258	1.665049
2.364746	1.664919
2.365234	1.665014
2.365723	1.665012
2.366211	1.665255
2.366699	1.665047
2.367187	1.665052
2.367676	1.664970
2.368164	1.665179
2.368652	1.665201
2.369141	1.665066
2.369629	1.665052
2.370117	1.665063
2.370605	1.665135
2.371094	1.665133
2.371582	1.664991
2.372070	1.665043
2.372559	1.664901
2.373047	1.665181
2.373535	1.665106
2.374023	1.665024
2.374512	1.664717
2.375000	1.664784
2.375488	1.664864
2.375977	1.664890
2.376465	1.664945
2.376953	1.664748
2.377441	1.664978
2.377930	1.664864
2.378418	1.665002
2.378906	1.664794
2.379395	1.664785
2.379883	1.664895
2.380371	1.665164
2.380859	1.664999
2.381348	1.664905
2.381836	1.664756
2.382324	1.664914
2.382812	1.665305
2.383301	1.665071
2.383789	1.665063
2.384277	1.664935
2.384766	1.665020
2.385254	1.664995
2.385742	1.664908
2.386230	1.664850
2.386719	1.664734
2.387207	1.664933
2.387695	1.664923
2.388184	1.664859
2.388672	1.664757
2.389160	1.664548
2.389648	1.665015
2.390137	1.665011
2.390625	1.664686
2.391113	1.665043
2.391602	1.664864
2.392090	1.665172
2.392578	1.665136
2.393066	1.664960
2.393555	1.664865
2.394043	1.664998
2.394531	1.665078
2.395020	1.665191
2.395508	1.664994
2.395996	1.664948
2.396484	1.665188
2.396973	1.665289
2.397461	1.665222
2.397949	1.665142
2.398437	1.665075
2.398926	1.665158
2.399414	1.665516
2.399902	1.665291
2.400391	1.665086
2.400879	1.664959
2.401367	1.665315
2.401855	1.665136
2.402344	1.665058
2.402832	1.665205
2.403320	1.664906
2.403809	1.665168
2.404297	1.665241
2.404785	1.665313
2.405273	1.664947
2.405762	1.664993
2.406250	1.665302
2.406738	1.665126
2.407227	1.665294
2.407715	1.665088
2.408203	1.664969
2.408691	1.665247
2.409180	1.665090
2.409668	1.665181
2.410156	1.664837
2.410645	1.664565
2.411133	1.665409
2.411621	1.665164
2.412109	1.665229
2.412598	1.664923
2.413086	1.664976
2.413574	1.665086
2.414062	1.665135
2.414551	1.664958
2.415039	1.664898
2.415527	1.664783
2.416016	1.664898
2.416504	1.664959
2.416992	1.665011
2.417480	1.664685
2.417969	1.664786
2.418457	1.665001
2.418945	1.664975
2.419434	1.664735
2.419922	1.664842
2.420410	1.664646
2.420898	1.664994
2.421387	1.665048
2.421875	1.664961
2.422363	1.665037
2.422852	1.664970
2.423340	1.665133
2.423828	1.665011
2.424316	1.665160
2.424805	1.664494
2.425293	1.664905
2.425781	1.664611
2.426270	1.664808
2.426758	1.664651
2.427246	1.664750
2.427734	1.664450
2.428223	1.664786
2.428711	1.665155
2.429199	1.664683
2.429687	1.664765
2.430176	1.664649
2.430664	1.664994
2.431152	1.664867
2.431641	1.664898
2.432129	1.664482
2.432617	1.664791
2.433105	1.664714
2.433594	1.664752
2.434082	1.664623
2.434570	1.664593
2.435059	1.664774
2.435547	1.664781
2.436035	1.664625
2.436523	1.664685
2.437012	1.664736
2.437500	1.664629
2.437988	1.664710
2.438477	1.664766
2.438965	1.664517
2.439453	1.664478
2.439941	1.664491
2.440430	1.664570
2.440918	1.664531
2.441406	1.664374
2.441895	1.664482
2.442383	1.664362
2.442871	1.664849
2.443359	1.664764
2.443848	1.664379
2.444336	1.664469
2.444824	1.664570
2.445312	1.664882
2.445801	1.664438
2.446289	1.664266
2.446777	1.664795
2.447266	1.664714
2.447754	1.664769
2.448242	1.664620
2.448730	1.664437
2.449219	1.664632
2.449707	1.664676
2.450195	1.664512
2.450684	1.664363
2.451172	1.664380
2.451660	1.664372
2.452148	1.664445
2.452637	1.664454
2.453125	1.664399
2.453613	1.664369
2.454102	1.664432
2.454590	1.664641
2.455078	1.664750
2.455566	1.664294
2.456055	1.664590
2.456543	1.664572
2.457031	1.664591
2.457520	1.664484
2.458008	1.664358
2.458496	1.664466
2.458984	1.664465
2.459473	1.664755
2.459961	1.664545
2.460449	1.664601
2.460937	1.664504
2.461426	1.664247
2.461914	1.664712
2.462402	1.664442
2.462891	1.664460
2.463379	1.664461
2.463867	1.664696
2.464355	1.664988
2.464844	1.664750
2.465332	1.664516
2.465820	1.664501
2.466309	1.664826
2.466797	1.664675
2.467285	1.664574
2.467773	1.664226
2.468262	1.664488
2.468750	1.664504
2.469238	1.664667
2.469727	1.664623
2.470215	1.664303
2.470703	1.664868
2.471191	1.664692
2.471680	1.664573
2.472168	1.664629
2.472656	1.664609
2.473145	1.664502
2.473633	1.664608
2.474121	1.664817
2.474609	1.664638
2.475098	1.664639
2.475586	1.664552
2.476074	1.664804
2.476562	1.664754
2.477051	1.664760
2.477539	1.664544
2.478027	1.664766
2.478516	1.664748
2.479004	1.664616
2.479492	1.664757
2.479980	1.664582
2.480469	1.664525
2.480957	1.664663
2.481445	1.664778
2.481934	1.664674
2.482422	1.664636
2.482910	1.664666
2.483398	1.664814
2.483887	1.664803
2.484375	1.664636
2.484863	1.664508
2.485352	1.664870
2.485840	1.664674
2.486328	1.664960
2.486816	1.664527
2.487305	1.664734
2.487793	1.664722
2.488281	1.664737
2.488770	1.664861
2.489258	1.664840
2.489746	1.664945
2.490234	1.664972
2.490723	1.664908
2.491211	1.665036
2.491699	1.664855
2.492187	1.664895
2.492676	1.664953
2.493164	1.665077
2.493652	1.664734
2.494141	1.664915
2.494629	1.664822
2.495117	1.665006
2.495605	1.664890
2.496094	1.664856
2.496582	1.664728
2.497070	1.664817
2.497559	1.664839
2.498047	1.664854
2.498535	1.664884
2.499023	1.664789
2.499512	1.664805
2.500000	1.664884
2.500488	1.664956
2.500977	1.664771
2.501465	1.664787
2.501953	1.664934
2.502441	1.665133
2.502930	1.664994
2.503418	1.665044
2.503906	1.664898
2.504395	1.664912
2.504883	1.664943
2.505371	1.664917
2.505859	1.664777
2.506348	1.664557
2.506836	1.664752
2.507324	1.664745
2.507812	1.664752
2.508301	1.664508
2.508789	1.664787
2.509277	1.664534
2.509766	1.665049
2.510254	1.664868
2.510742	1.664733
2.511230	1.664733
2.511719	1.664748
2.512207	1.664950
2.512695	1.664887
2.513184	1.664715
2.513672	1.664756
2.514160	1.664879
2.514648	1.664924
2.515137	1.664831
2.515625	1.665019
2.516113	1.664816
2.516602	1.664895
2.517090	1.665069
2.517578	1.664956
2.518066	1.664520
2.518555	1.664732
2.519043	1.664728
2.519531	1.664813
2.520020	1.664802
2.520508	1.664570
2.520996	1.665013
2.521484	1.664881
2.521973	1.664908
2.522461	1.664707
2.522949	1.664583
2.523437	1.664775
2.523926	1.664822
2.524414	1.664786
2.524902	1.664771
2.525391	1.664571
2.525879	1.664795
2.526367	1.664895
2.526855	1.664872
2.527344	1.665100
2.527832	1.664823
2.528320	1.664849
2.528809	1.665048
2.529297	1.664712
2.529785	1.664895
2.530273	1.664704
2.530762	1.664951
2.531250	1.665018
2.531738	1.665034
2.532227	1.664978
2.532715	1.664679
2.533203	1.664759
2.533691	1.664901
2.534180	1.664955
2.534668	1.664764
2.535156	1.664699
2.535645	1.665048
2.536133	1.664970
2.536621	1.664863
2.537109	1.665047
2.537598	1.665085
2.538086	1.665097
2.538574	1.665160
2.539062	1.665210
2.539551	1.664942
2.540039	1.664659
2.540527	1.665003
2.541016	1.664804
2.541504	1.665079
2.541992	1.664635
2.542480	1.665015
2.542969	1.665091
2.543457	1.665093
2.543945	1.664695
2.544434	1.664866
2.544922	1.664811
2.545410	1.664995
2.545898	1.665047
2.546387	1.664875
2.546875	1.664802
2.547363	1.664781
2.547852	1.665064
2.548340	1.664952
2.548828	1.664840
2.549316	1.665067
2.549805	1.664974
2.550293	1.664944
2.550781	1.665022
2.551270	1.665006
2.551758	1.664637
2.552246	1.664888
2.552734	1.664789
2.553223	1.665057
2.553711	1.664825
2.554199	1.664885
2.554687	1.664916
2.555176	1.664897
2.555664	1.664731
2.556152	1.665036
2.556641	1.664742
2.557129	1.665152
2.557617	1.665186
2.558105	1.664904
2.558594	1.664989
2.559082	1.664792
2.559570	1.664983
2.560059	1.664903
2.560547	1.664944
2.561035	1.664360
2.561523	1.664804
2.562012	1.664921
2.562500	1.665020
2.562988	1.664795
2.563477	1.664583
2.563965	1.664526
2.564453	1.664984
2.564941	1.665133
2.565430	1.664695
2.565918	1.664632
2.566406	1.664909
2.566895	1.665019
2.567383	1.664967
2.567871	1.664768
2.568359	1.664767
2.568848	1.664704
2.569336	1.664842
2.569824	1.664775
2.570312	1.664300
2.570801	1.664665
2.571289	1.664575
2.571777	1.664784
2.572266	1.664497
2.572754	1.664778
2.573242	1.664529
2.573730	1.664842
2.574219	1.664879
2.574707	1.664779
2.575195	1.664767
2.575684	1.664470
2.576172	1.664737
2.576660	1.664872
2.577148	1.664857
2.577637	1.664781
2.578125	1.664764
2.578613	1.664784
2.579102	1.665129
2.579590	1.664896
2.580078	1.664881
2.580566	1.664823
2.581055	1.665067
2.581543	1.665097
2.582031	1.664981
2.582520	1.664797
2.583008	1.664519
2.583496	1.664975
2.583984	1.665299
2.584473	1.665163
2.584961	1.664784
2.585449	1.664709
2.585937	1.664897
2.586426	1.664689
2.586914	1.664791
2.587402	1.664526
2.587891	1.664751
2.588379	1.664790
2.588867	1.664958
2.589355	1.665014
2.589844	1.664679
2.590332	1.664512
2.590820	1.664835
2.591309	1.664720
2.591797	1.664742
2.592285	1.664635
2.592773	1.664639
2.593262	1.664873
2.593750	1.664908
2.594238	1.664794
2.594727	1.664941
2.595215	1.664739
2.595703	1.664984
2.596191	1.665013
2.596680	1.664923
2.597168	1.664815
2.597656	1.664689
2.598145	1.664757
2.598633	1.664663
2.599121	1.664901
2.599609	1.664789
2.600098	1.664623
2.600586	1.664615
2.601074	1.665016
2.601562	1.664724
2.602051	1.664294
2.602539	1.664503
2.603027	1.664399
2.603516	1.664800
2.604004	1.664400
2.604492	1.664408
2.604980	1.664582
2.605469	1.664559
2.605957	1.664670
2.606445	1.664216
2.606934	1.664638
2.607422	1.664407
2.607910	1.664532
2.608398	1.664584
2.608887	1.664595
2.609375	1.664352
2.609863	1.664751
2.610352	1.664899
2.610840	1.664590
2.611328	1.664759
2.611816	1.664617
2.612305	1.664759
2.612793	1.664637
2.613281	1.664672
2.613770	1.664488
2.614258	1.664581
2.614746	1.664582
2.615234	1.664614
2.615723	1.664416
2.616211	1.664434
2.616699	1.664429
2.617187	1.664650
2.617676	1.664518
2.618164	1.664623
2.618652	1.664372
2.619141	1.664681
2.619629	1.664883
2.620117	1.664859
2.620605	1.664816
2.621094	1.664607
2.621582	1.664719
2.622070	1.664699
2.622559	1.664996
2.623047	1.664725
2.623535	1.664612
2.624023	1.664958
2.624512	1.665029
2.625000	1.664906
2.625488	1.664908
2.625977	1.664851
2.626465	1.664787
2.626953	1.665058
2.627441	1.664887
2.627930	1.664723
2.628418	1.664638
2.628906	1.664726
2.629395	1.665045
2.629883	1.664930
2.630371	1.664731
2.630859	1.664607
2.631348	1.664689
2.631836	1.664854
2.632324	1.664909
2.632812	1.664614
2.633301	1.664776
2.633789	1.664587
2.634277	1.665024
2.634766	1.664791
2.635254	1.664834
2.635742	1.664629
2.636230	1.664749
2.636719	1.664937
2.637207	1.664985
2.637695	1.664980
2.638184	1.664674
2.638672	1.665081
2.639160	1.664805
2.639648	1.664746
2.640137	1.664577
2.640625	1.664157
2.641113	1.664725
2.641602	1.664588
2.642090	1.664735
2.642578	1.664731
2.643066	1.664449
2.643555	1.664457
2.644043	1.664659
2.644531	1.664624
2.645020	1.664402
2.645508	1.664383
2.645996	1.664642
2.646484	1.664584
2.646973	1.664374
2.647461	1.664575
2.647949	1.664440
2.648437	1.664931
2.648926	1.664731
2.649414	1.664583
2.649902	1.664457
2.650391	1.664791
2.650879	1.664678
2.651367	1.665030
2.651855	1.664664
2.652344	1.664570
2.652832	1.664541
2.653320	1.664610
2.653809	1.664792
2.654297	1.664489
2.654785	1.664617
2.655273	1.664522
2.655762	1.664656
2.656250	1.664547
2.656738	1.664585
2.657227	1.664781
2.657715	1.664799
2.658203	1.664787
2.658691	1.664798
2.659180	1.664632
2.659668	1.664501
2.660156	1.664574
2.660645	1.664529
2.661133	1.664901
2.661621	1.664424
2.662109	1.664565
2.662598	1.664948
2.663086	1.664787
2.663574	1.664868
2.664062	1.664535
2.664551	1.664631
2.665039	1.664840
2.665527	1.664753
2.666016	1.664705
2.666504	1.664716
2.666992	1.664835
2.667480	1.664861
2.667969	1.664919
2.668457	1.664828
2.668945	1.664762
2.669434	1.664654
2.669922	1.665002
2.670410	1.664509
2.670898	1.664562
2.671387	1.664471
2.671875	1.664472
2.672363	1.664659
2.672852	1.664678
2.673340	1.664541
2.673828	1.664419
2.674316	1.664480
2.674805	1.664729
2.675293	1.664493
2.675781	1.664203
2.676270	1.664515
2.676758	1.664678
2.677246	1.664508
2.677734	1.664854
2.678223	1.664647
2.678711	1.664504
2.679199	1.664529
2.679687	1.664472
2.680176	1.664577
2.680664	1.664377
2.681152	1.664339
2.681641	1.664400
2.682129	1.664781
2.682617	1.664488
2.683105	1.664743
2.683594	1.664617
2.684082	1.664802
2.684570	1.664782
2.685059	1.664848
2.685547	1.664528
2.686035	1.664567
2.686523	1.664889
2.687012	1.664908
2.687500	1.664836
2.687988	1.664574
2.688477	1.664853
2.688965	1.664641
2.689453	1.664987
2.689941	1.664710
2.690430	1.664585
2.690918	1.664771
2.691406	1.664859
2.691895	1.664770
2.692383	1.664767
2.692871	1.664780
2.693359	1.664848
2.693848	1.664938
2.694336	1.664909
2.694824	1.664766
2.695312	1.664607
2.695801	1.664777
2.696289	1.664820
2.696777	1.664818
2.697266	1.664585
2.697754	1.664743
2.698242	1.664659
2.698730	1.665119
2.699219	1.664911
2.699707	1.664939
2.700195	1.664851
2.700684	1.664766
2.701172	1.664892
2.701660	1.664942
2.702148	1.664941
2.702637	1.664812
2.703125	1.664812
2.703613	1.665183
2.704102	1.664897
2.704590	1.664620
2.705078	1.664900
2.705566	1.665121
2.706055	1.664955
2.706543	1.664906
2.707031	1.664840
2.707520	1.664879
2.708008	1.664520
2.708496	1.664869
2.708984	1.664721
2.709473	1.664674
2.709961	1.664737
2.710449	1.664776
2.710937	1.665149
2.711426	1.664858
2.711914	1.664811
2.712402	1.664544
2.712891	1.664795
2.713379	1.664999
2.713867	1.664996
2.714355	1.664912
2.714844	1.665006
2.715332	1.665012
2.715820	1.665140
2.716309	1.665265
2.716797	1.664988
2.717285	1.665041
2.717773	1.665128
2.718262	1.665215
2.718750	1.665060
2.719238	1.665005
2.719727	1.664984
2.720215	1.665108
2.720703	1.664887
2.721191	1.665049
2.721680	1.664884
2.722168	1.664849
2.722656	1.665258
2.723145	1.665069
2.723633	1.664956
2.724121	1.664715
2.724609	1.665039
2.725098	1.664920
2.725586	1.664873
2.726074	1.664836
2.726562	1.664930
2.727051	1.664974
2.727539	1.665289
2.728027	1.665267
2.728516	1.665064
2.729004	1.665174
2.729492	1.665082
2.729980	1.665164
2.730469	1.665254
2.730957	1.665136
2.731445	1.665132
2.731934	1.665197
2.732422	1.665343
2.732910	1.665183
2.733398	1.664930
2.733887	1.664936
2.734375	1.664986
2.734863	1.665135
2.735352	1.664941
2.735840	1.664823
2.736328	1.664666
2.736816	1.664887
2.737305	1.665050
2.737793	1.665065
2.738281	1.664745
2.738770	1.664776
2.739258	1.665003
2.739746	1.664860
2.740234	1.664891
2.740723	1.664266
2.741211	1.664681
2.741699	1.664745
2.742187	1.664759
2.742676	1.664793
2.743164	1.664400
2.743652	1.664623
2.744141	1.664546
2.744629	1.664662
2.745117	1.664620
2.745605	1.664274
2.746094	1.664400
2.746582	1.664658
2.747070	1.664704
2.747559	1.664458
2.748047	1.664624
2.748535	1.664424
2.749023	1.664590
2.749512	1.664499
2.750000	1.664382
2.750488	1.664081
2.750977	1.664280
2.751465	1.664370
2.751953	1.663981
2.752441	1.664365
2.752930	1.664220
2.753418	1.664238
2.753906	1.664387
2.754395	1.664238
2.754883	1.664179
2.755371	1.664368
2.755859	1.664322
2.756348	1.664714
2.756836	1.664633
2.757324	1.664660
2.757812	1.664460
2.758301	1.664626
2.758789	1.664778
2.759277	1.664859
2.759766	1.664494
2.760254	1.664476
2.760742	1.664704
2.761230	1.664606
2.761719	1.664582
2.762207	1.664529
2.762695	1.664548
2.763184	1.664648
2.763672	1.664867
2.764160	1.664501
2.764648	1.664426
2.765137	1.664569
2.765625	1.664942
2.766113	1.664599
2.766602	1.664697
2.767090	1.664487
2.767578	1.664861
2.768066	1.664669
2.768555	1.664973
2.769043	1.664709
2.769531	1.664648
2.770020	1.665062
2.770508	1.664928
2.770996	1.664967
2.771484	1.664963
2.771973	1.664809
2.772461	1.664897
2.772949	1.665179
2.773437	1.665047
2.773926	1.664822
2.774414	1.664878
2.774902	1.664850
2.775391	1.664760
2.775879	1.664771
2.776367	1.664737
2.776855	1.664779
2.777344	1.664804
2.777832	1.664847
2.778320	1.665040
2.778809	1.664596
2.779297	1.664667
2.779785	1.664875
2.780273	1.664734
2.780762	1.664958
2.781250	1.664878
2.781738	1.664648
2.782227	1.664892
2.782715	1.664870
2.783203	1.665033
2.783691	1.664671
2.784180	1.664696
2.784668	1.665035
2.785156	1.664979
2.785645	1.665025
2.786133	1.664966
2.786621	1.664916
2.787109	1.665103
2.787598	1.665186
2.788086	1.664917
2.788574	1.664917
2.789062	1.664763
2.789551	1.665065
2.790039	1.664897
2.790527	1.664935
2.791016	1.664861
2.791504	1.664842
2.791992	1.665083
2.792480	1.665059
2.792969	1.664953
2.793457	1.664814
2.793945	1.665109
2.794434	1.665089
2.794922	1.665154
2.795410	1.665082
2.795898	1.665009
2.796387	1.665188
2.796875	1.665276
2.797363	1.665499
2.797852	1.665215
2.798340	1.665157
2.798828	1.665024
2.799316	1.665653
2.799805	1.665141
2.800293	1.664974
2.800781	1.665032
2.801270	1.664875
2.801758	1.665183
2.802246	1.665321
2.802734	1.665133
2.803223	1.665210
2.803711	1.665238
2.804199	1.665385
2.804687	1.665487
2.805176	1.665169
2.805664	1.665376
2.806152	1.665358
2.806641	1.665512
2.807129	1.665337
2.807617	1.665233
2.808105	1.665136
2.808594	1.665456
2.809082	1.665280
2.809570	1.665144
2.810059	1.665454
2.810547	1.665001
2.811035	1.665366
2.811523	1.665363
2.812012	1.665256
2.812500	1.665299
2.812988	1.665526
2.813477	1.665531
2.813965	1.665334
2.814453	1.665559
2.814941	1.665105
2.815430	1.665115
2.815918	1.665465
2.816406	1.665340
2.816895	1.665370
2.817383	1.665003
2.817871	1.665086
2.818359	1.665067
2.818848	1.665343
2.819336	1.664709
2.819824	1.664820
2.820312	1.664926
2.820801	1.665112
2.821289	1.664829
2.821777	1.665119
2.822266	1.664918
2.822754	1.665103
2.823242	1.665268
2.823730	1.665034
2.824219	1.664920
2.824707	1.664659
2.825195	1.665066
2.825684	1.664983
2.826172	1.664945
2.826660	1.665000
2.827148	1.664750
2.827637	1.665136
2.828125	1.665053
2.828613	1.664808
2.829102	1.664809
2.829590	1.664561
2.830078	1.664979
2.830566	1.664889
2.831055	1.664891
2.831543	1.664680
2.832031	1.665085
2.832520	1.664908
2.833008	1.665281
2.833496	1.664939
2.833984	1.664768
2.834473	1.664706
2.834961	1.665186
2.835449	1.664947
2.835937	1.664856
2.836426	1.664837
2.836914	1.664859
2.837402	1.664899
2.837891	1.665008
2.838379	1.664826
2.838867	1.664634
2.839355	1.664856
2.839844	1.665075
2.840332	1.664776
2.840820	1.664750
2.841309	1.664957
2.841797	1.664649
2.842285	1.665233
2.842773	1.664961
2.843262	1.664751
2.843750	1.664694
2.844238	1.664908
2.844727	1.664798
2.845215	1.664878
2.845703	1.664594
2.846191	1.664690
2.846680	1.664546
2.847168	1.664983
2.847656	1.664798
2.848145	1.664668
2.848633	1.664556
2.849121	1.664903
2.849609	1.665042
2.850098	1.664880
2.850586	1.664832
2.851074	1.664832
2.851562	1.664890
2.852051	1.664857
2.852539	1.664882
2.853027	1.664652
2.853516	1.664696
2.854004	1.665020
2.854492	1.665011
2.854980	1.664821
2.855469	1.664709
2.855957	1.664898
2.856445	1.664971
2.856934	1.665229
2.857422	1.664919
2.857910	1.664856
2.858398	1.664911
2.858887	1.664945
2.859375	1.664981
2.859863	1.664862
2.860352	1.664574
2.860840	1.664819
2.861328	1.664820
2.861816	1.664843
2.862305	1.664866
2.862793	1.664801
2.863281	1.665050
2.863770	1.664999
2.864258	1.665386
2.864746	1.664926
2.865234	1.664861
2.865723	1.664945
2.866211	1.665058
2.866699	1.665066
2.867187	1.664998
2.867676	1.664897
2.868164	1.664714
2.868652	1.665251
2.869141	1.665180
2.869629	1.664862
2.870117	1.664794
2.870605	1.664986
2.871094	1.664818
2.871582	1.665259
2.872070	1.664734
2.872559	1.664782
2.873047	1.664739
2.873535	1.665005
2.874023	1.664876
2.874512	1.664771
2.875000	1.664749
2.875488	1.664930
2.875977	1.665003
2.876465	1.665050
2.876953	1.665000
2.877441	1.664946
2.877930	1.665180
2.878418	1.665293
2.878906	1.665003
2.879395	1.665050
2.879883	1.665002
2.880371	1.665086
2.880859	1.665235
2.881348	1.665055
2.881836	1.664976
2.882324	1.665343
2.882812	1.665110
2.883301	1.665166
2.883789	1.665310
2.884277	1.665133
2.884766	1.665039
2.885254	1.665325
2.885742	1.665197
2.886230	1.665163
2.886719	1.665002
2.887207	1.665240
2.887695	1.665299
2.888184	1.665215
2.888672	1.665151
2.889160	1.665042
2.889648	1.665220
2.890137	1.665424
2.890625	1.665238
2.891113	1.664950
2.891602	1.665008
2.892090	1.665151
2.892578	1.665116
2.893066	1.665216
2.893555	1.665296
2.894043	1.665051
2.894531	1.665332
2.895020	1.665207
2.895508	1.665306
2.895996	1.665191
2.896484	1.665274
2.896973	1.665183
2.897461	1.665359
2.897949	1.665158
2.898437	1.665149
2.898926	1.665255
2.899414	1.665475
2.899902	1.665438
2.900391	1.665261
2.900879	1.665197
2.901367	1.665031
2.901855	1.665140
2.902344	1.665407
2.902832	1.665410
2.903320	1.665258
2.903809	1.665235
2.904297	1.665308
2.904785	1.665458
2.905273	1.665415
2.905762	1.665179
2.906250	1.665343
2.906738	1.665569
2.907227	1.665294
2.907715	1.665382
2.908203	1.665249
2.908691	1.665298
2.909180	1.665336
2.909668	1.665359
2.910156	1.665240
2.910645	1.664857
2.911133	1.665001
2.911621	1.665180
2.912109	1.665038
2.912598	1.665094
2.913086	1.665132
2.913574	1.665112
2.914062	1.665118
2.914551	1.665148
2.915039	1.664958
2.915527	1.664792
2.916016	1.664991
2.916504	1.665346
2.916992	1.665172
2.917480	1.665008
2.917969	1.664828
2.918457	1.664998
2.918945	1.665011
2.919434	1.664801
2.919922	1.664948
2.920410	1.664667
2.920898	1.664992
2.921387	1.665025
2.921875	1.664932
2.922363	1.664748
2.922852	1.664868
2.923340	1.664785
2.923828	1.664871
2.924316	1.664809
2.924805	1.664544
2.925293	1.664967
2.925781	1.664859
2.926270	1.664955
2.926758	1.664897
2.927246	1.664809
2.927734	1.664720
2.928223	1.665163
2.928711	1.664983
2.929199	1.664524
2.929687	1.664697
2.930176	1.664785
2.930664	1.664917
2.931152	1.664901
2.931641	1.664773
2.932129	1.665075
2.932617	1.664510
2.933105	1.664923
2.933594	1.664887
2.934082	1.664784
2.934570	1.664839
2.935059	1.664707
2.935547	1.665319
2.936035	1.665028
2.936523	1.664843
2.937012	1.664730
2.937500	1.665155
2.937988	1.665081
2.938477	1.664972
2.938965	1.664712
2.939453	1.664789
2.939941	1.664833
2.940430	1.664876
2.940918	1.664754
2.941406	1.664569
2.941895	1.665030
2.942383	1.664920
2.942871	1.665105
2.943359	1.665007
2.943848	1.665085
2.944336	1.664875
2.944824	1.665043
2.945312	1.665246
2.945801	1.665181
2.946289	1.665340
2.946777	1.665064
2.947266	1.665358
2.947754	1.665624
2.948242	1.665345
2.948730	1.665283
2.949219	1.665019
2.949707	1.665366
2.950195	1.665249
2.950684	1.665176
2.951172	1.664818
2.951660	1.665095
2.952148	1.665392
2.952637	1.665423
2.953125	1.665219
2.953613	1.665319
2.954102	1.665310
2.954590	1.665531
2.955078	1.665671
2.955566	1.665390
2.956055	1.665294
2.956543	1.665344
2.957031	1.665679
2.957520	1.665364
2.958008	1.665338
2.958496	1.665456
2.958984	1.665456
2.959473	1.665649
2.959961	1.665732
2.960449	1.665368
2.960937	1.665213
2.961426	1.665507
2.961914	1.665351
2.962402	1.665482
2.962891	1.665177
2.963379	1.665300
2.963867	1.665384
2.964355	1.665416
2.964844	1.665211
2.965332	1.665277
2.965820	1.665484
2.966309	1.665446
2.966797	1.665366
2.967285	1.665736
2.967773	1.665617
2.968262	1.665540
2.968750	1.665539
2.969238	1.665863
2.969727	1.665769
2.970215	1.665247
2.970703	1.665304
2.971191	1.665373
2.971680	1.665502
2.972168	1.665344
2.972656	1.665323
2.973145	1.665402
2.973633	1.665512
2.974121	1.665707
2.974609	1.665268
2.975098	1.665279
2.975586	1.665255
2.976074	1.665409
2.976562	1.665279
2.977051	1.665396
2.977539	1.665299
2.978027	1.665265
2.978516	1.665610
2.979004	1.665460
2.979492	1.665346
2.979980	1.665200
2.980469	1.665188
2.980957	1.665365
2.981445	1.665219
2.981934	1.665403
2.982422	1.665214
2.982910	1.665415
2.983398	1.665796
2.983887	1.665278
2.984375	1.665531
2.984863	1.665440
2.985352	1.665330
2.985840	1.665647
2.986328	1.665335
2.986816	1.665278
2.987305	1.665308
2.987793	1.665283
2.988281	1.665357
2.988770	1.665317
2.989258	1.665371
2.989746	1.665172
2.990234	1.665410
2.990723	1.665287
2.991211	1.665160
2.991699	1.664949
2.992187	1.664821
2.992676	1.665186
2.993164	1.665165
2.993652	1.665349
2.994141	1.665092
2.994629	1.665056
2.995117	1.665293
2.995605	1.665409
2.996094	1.665413
2.996582	1.665012
2.997070	1.665373
2.997559	1.665659
2.998047	1.665362
2.998535	1.665373
2.999023	1.665224
2.999512	1.665259
3.000000	1.665194
3.000488	1.665122
3.000977	1.665326
3.001465	1.665077
3.001953	1.665133
3.002441	1.665246
3.002930	1.665143
3.003418	1.664890
3.003906	1.665039
3.004395	1.665181
3.004883	1.665144
3.005371	1.665141
3.005859	1.665212
3.006348	1.664794
3.006836	1.664948
3.007324	1.665022
3.007812	1.665080
3.008301	1.664950
3.008789	1.664669
3.009277	1.665213
3.009766	1.665122
3.010254	1.664931
3.010742	1.664890
3.011230	1.664821
3.011719	1.665055
3.012207	1.665080
3.012695	1.665066
3.013184	1.664953
3.013672	1.664926
3.014160	1.665063
3.014648	1.665202
3.015137	1.664933
3.015625	1.664948
3.016113	1.664756
3.016602	1.665190
3.017090	1.664993
3.017578	1.665159
3.018066	1.664760
3.018555	1.664651
3.019043	1.665063
3.019531	1.664872
3.020020	1.664925
3.020508	1.664796
3.020996	1.664940
3.021484	1.665114
3.021973	1.664909
3.022461	1.664971
3.022949	1.664846
3.023437	1.664812
3.023926	1.665013
3.024414	1.665157
3.024902	1.665143
3.025391	1.664906
3.025879	1.665234
3.026367	1.665088
3.026855	1.665330
3.027344	1.665085
3.027832	1.665112
3.028320	1.665168
3.028809	1.665176
3.029297	1.665460
3.029785	1.665188
3.030273	1.665097
3.030762	1.665219
3.031250	1.665312
3.031738	1.665610
3.032227	1.665200
3.032715	1.665088
3.033203	1.665241
3.033691	1.665439
3.034180	1.665293
3.034668	1.665044
3.035156	1.664997
3.035645	1.665147
3.036133	1.665222
3.036621	1.665205
3.037109	1.665378
3.037598	1.665346
3.038086	1.665426
3.038574	1.665612
3.039062	1.665504
3.039551	1.665353
3.040039	1.665411
3.040527	1.665515
3.041016	1.665533
3.041504	1.665542
3.041992	1.665387
3.042480	1.665197
3.042969	1.665667
3.043457	1.665564
3.043945	1.665446
3.044434	1.665219
3.044922	1.665017
3.045410	1.665516
3.045898	1.665410
3.046387	1.665293
3.046875	1.665365
3.047363	1.665313
3.047852	1.665401
3.048340	1.665490
3.048828	1.665288
3.049316	1.665400
3.049805	1.665360
3.050293	1.665773
3.050781	1.665730
3.051270	1.665086
3.051758	1.665465
3.052246	1.665317
3.052734	1.665564
3.053223	1.665609
3.053711	1.665378
3.054199	1.665465
3.054687	1.665626
3.055176	1.665388
3.055664	1.665687
3.056152	1.665470
3.056641	1.665254
3.057129	1.665403
3.057617	1.665750
3.058105	1.665445
3.058594	1.665263
3.059082	1.665249
3.059570	1.665379
3.060059	1.665344
3.060547	1.665566
3.061035	1.665000
3.061523	1.665087
3.062012	1.665279
3.062500	1.665260
3.062988	1.665152
3.063477	1.665083
3.063965	1.664931
3.064453	1.665081
3.064941	1.665332
3.065430	1.665093
3.065918	1.664861
3.066406	1.665103
3.066895	1.665108
3.067383	1.665230
3.067871	1.665162
3.068359	1.664882
3.068848	1.664961
3.069336	1.664915
3.069824	1.665120
3.070312	1.665060
3.070801	1.664407
3.071289	1.665236
3.071777	1.665044
3.072266	1.664938
3.072754	1.664929
3.073242	1.664678
3.073730	1.664795
3.074219	1.664934
3.074707	1.664927
3.075195	1.664864
3.075684	1.664620
3.076172	1.664712
3.076660	1.665031
3.077148	1.664882
3.077637	1.664908
3.078125	1.664730
3.078613	1.664941
3.079102	1.665075
3.079590	1.664880
3.080078	1.664890
3.080566	1.664686
3.081055	1.664979
3.081543	1.664950
3.082031	1.664865
3.082520	1.664947
3.083008	1.664867
3.083496	1.664958
3.083984	1.665075
3.084473	1.664886
3.084961	1.664856
3.085449	1.664551
3.085937	1.664855
3.086426	1.664845
3.086914	1.664551
3.087402	1.664745
3.087891	1.664722
3.088379	1.665031
3.088867	1.664981
3.089355	1.664841
3.089844	1.664933
3.090332	1.664528
3.090820	1.664763
3.091309	1.664751
3.091797	1.664571
3.092285	1.664497
3.092773	1.664625
3.093262	1.664886
3.093750	1.665009
3.094238	1.664651
3.094727	1.664650
3.095215	1.664774
3.095703	1.664608
3.096191	1.664682
3.096680	1.664537
3.097168	1.664682
3.097656	1.664505
3.098145	1.664711
3.098633	1.664640
3.099121	1.664412
3.099609	1.664566
3.100098	1.664635
3.100586	1.664662
3.101074	1.664590
3.101562	1.664451
3.102051	1.664371
3.102539	1.664653
3.103027	1.664705
3.103516	1.664606
3.104004	1.664667
3.104492	1.664572
3.104980	1.664753
3.105469	1.664587
3.105957	1.664811
3.106445	1.664521
3.106934	1.664684
3.107422	1.664928
3.107910	1.664705
3.108398	1.664727
3.108887	1.664638
3.109375	1.664561
3.109863	1.664845
3.110352	1.664870
3.110840	1.664646
3.111328	1.664605
3.111816	1.664607
3.112305	1.664811
3.112793	1.664699
3.113281	1.664653
3.113770	1.664659
3.114258	1.664821
3.114746	1.664899
3.115234	1.664975
3.115723	1.664843
3.116211	1.664671
3.116699	1.664656
3.117187	1.665230
3.117676	1.665074
3.118164	1.664975
3.118652	1.664826
3.119141	1.665008
3.119629	1.665148
3.120117	1.665229
3.120605	1.665121
3.121094	1.665051
3.121582	1.665235
3.122070	1.665294
3.122559	1.665262
3.123047	1.665109
3.123535	1.665106
3.124023	1.665350
3.124512	1.665276
3.125000	1.665419
3.125488	1.665249
3.125977	1.665222
3.126465	1.665440
3.126953	1.665386
3.127441	1.665445
3.127930	1.665144
3.128418	1.665030
3.128906	1.665256
3.129395	1.665424
3.129883	1.665279
3.130371	1.665134
3.130859	1.665200
3.131348	1.665537
3.131836	1.665749
3.132324	1.665518
3.132812	1.665424
3.133301	1.665611
3.133789	1.665681
3.134277	1.665493
3.134766	1.665692
3.135254	1.665550
3.135742	1.665503
3.136230	1.665731
3.136719	1.665620
3.137207	1.665478
3.137695	1.665576
3.138184	1.665504
3.138672	1.665736
3.139160	1.665553
3.139648	1.665352
3.140137	1.665576
3.140625	1.664961
3.141113	1.665639
3.141602	1.665114
3.142090	1.665060
3.142578	1.665069
3.143066	1.665337
3.143555	1.665271
3.144043	1.665467
3.144531	1.665272
3.145020	1.665155
3.145508	1.665389
3.145996	1.665458
3.146484	1.665459
3.146973	1.665512
3.147461	1.665301
3.147949	1.665400
3.148437	1.665455
3.148926	1.665111
3.149414	1.665343
3.149902	1.665149
3.150391	1.665346
3.150879	1.665426
3.151367	1.665293
3.151855	1.665421
3.152344	1.665360
3.152832	1.665371
3.153320	1.665417
3.153809	1.664963
3.154297	1.664955
3.154785	1.665277
3.155273	1.665069
3.155762	1.665291
3.156250	1.665040
3.156738	1.665143
3.157227	1.665297
3.157715	1.665207
3.158203	1.665267
3.158691	1.665406
3.159180	1.665200
3.159668	1.665327
3.160156	1.665533
3.160645	1.665172
3.161133	1.665157
3.161621	1.665157
3.162109	1.665188
3.162598	1.665440
3.163086	1.665521
3.163574	1.665333
3.164062	1.665154
3.164551	1.665153
3.165039	1.665496
3.165527	1.665192
3.166016	1.665257
3.166504	1.665121
3.166992	1.665426
3.167480	1.665631
3.167969	1.665122
3.168457	1.665258
3.168945	1.664972
3.169434	1.665218
3.169922	1.665387
3.170410	1.665265
3.170898	1.665031
3.171387	1.665039
3.171875	1.665215
3.172363	1.665425
3.172852	1.665279
3.173340	1.665165
3.173828	1.665208
3.174316	1.665241
3.174805	1.665315
3.175293	1.665053
3.175781	1.665274
3.176270	1.664957
3.176758	1.665289
3.177246	1.665279
3.177734	1.665401
3.178223	1.664971
3.178711	1.665310
3.179199	1.665406
3.179687	1.665404
3.180176	1.665635
3.180664	1.664988
3.181152	1.665225
3.181641	1.665137
3.182129	1.665390
3.182617	1.665069
3.183105	1.664933
3.183594	1.664748
3.184082	1.665030
3.184570	1.664977
3.185059	1.664941
3.185547	1.664890
3.186035	1.664842
3.186523	1.665255
3.187012	1.665112
3.187500	1.665164
3.187988	1.664844
3.188477	1.665075
3.188965	1.665328
3.189453	1.665050
3.189941	1.665146
3.190430	1.665105
3.190918	1.664646
3.191406	1.665167
3.191895	1.665161
3.192383	1.664841
3.192871	1.664670
3.193359	1.664944
3.193848	1.665243
3.194336	1.664911
3.194824	1.664798
3.195312	1.664748
3.195801	1.664612
3.196289	1.664939
3.196777	1.664829
3.197266	1.664813
3.197754	1.664820
3.198242	1.665127
3.198730	1.665166
3.199219	1.664856
3.199707	1.664938
3.200195	1.664616
3.200684	1.664954
3.201172	1.664931
3.201660	1.665201
3.202148	1.665164
3.202637	1.664803
3.203125	1.665154
3.203613	1.665077
3.204102	1.665062
3.204590	1.664947
3.205078	1.665058
3.205566	1.665083
3.206055	1.665155
3.206543	1.665217
3.207031	1.665081
3.207520	1.665211
3.208008	1.665046
3.208496	1.665051
3.208984	1.665286
3.209473	1.664973
3.209961	1.665210
3.210449	1.665306
3.210937	1.664865
3.211426	1.665247
3.211914	1.664699
3.212402	1.664977
3.212891	1.665020
3.213379	1.665210
3.213867	1.664991
3.214355	1.664800
3.214844	1.665193
3.215332	1.664858
3.215820	1.665075
3.216309	1.665046
3.216797	1.664937
3.217285	1.665102
3.217773	1.665261
3.218262	1.665179
3.218750	1.665002
3.219238	1.664872
3.219727	1.665221
3.220215	1.664989
3.220703	1.664845
3.221191	1.664875
3.221680	1.664845
3.222168	1.664872
3.222656	1.664912
3.223145	1.664916
3.223633	1.664618
3.224121	1.664728
3.224609	1.664933
3.225098	1.664953
3.225586	1.664865
3.226074	1.664664
3.226562	1.664955
3.227051	1.664766
3.227539	1.664754
3.228027	1.664736
3.228516	1.664479
3.229004	1.664805
3.229492	1.664718
3.229980	1.665005
3.230469	1.664623
3.230957	1.664540
3.231445	1.664571
3.231934	1.664520
3.232422	1.664735
3.232910	1.664388
3.233398	1.664458
3.233887	1.664613
3.234375	1.664618
3.234863	1.664620
3.235352	1.664538
3.235840	1.664416
3.236328	1.664465
3.236816	1.664477
3.237305	1.664652
3.237793	1.664527
3.238281	1.664146
3.238770	1.664519
3.239258	1.664481
3.239746	1.664463
3.240234	1.664396
3.240723	1.664311
3.241211	1.664806
3.241699	1.664436
3.242187	1.664432
3.242676	1.664238
3.243164	1.664133
3.243652	1.664385
3.244141	1.664501
3.244629	1.664364
3.245117	1.664227
3.245605	1.664444
3.246094	1.664394
3.246582	1.664548
3.247070	1.664375
3.247559	1.664339
3.248047	1.664318
3.248535	1.664421
3.249023	1.664499
3.249512	1.664373
3.250000	1.664459
3.250488	1.664170
3.250977	1.664501
3.251465	1.664550
3.251953	1.664623
3.252441	1.664255
3.252930	1.664593
3.253418	1.664595
3.253906	1.664290
3.254395	1.664526
3.254883	1.664234
3.255371	1.664294
3.255859	1.664439
3.256348	1.664651
3.256836	1.664222
3.257324	1.664545
3.257812	1.664379
3.258301	1.664588
3.258789	1.664639
3.259277	1.664419
3.259766	1.664347
3.260254	1.664244
3.260742	1.664382
3.261230	1.664334
3.261719	1.664440
3.262207	1.664450
3.262695	1.664381
3.263184	1.664533
3.263672	1.664656
3.264160	1.664369
3.264648	1.664175
3.265137	1.664567
3.265625	1.664491
3.266113	1.664505
3.266602	1.664422
3.267090	1.664379
3.267578	1.664735
3.268066	1.664607
3.268555	1.664607
3.269043	1.664555
3.269531	1.664684
3.270020	1.664576
3.270508	1.664829
3.270996	1.664482
3.271484	1.664602
3.271973	1.664640
3.272461	1.664778
3.272949	1.664732
3.273437	1.664809
3.273926	1.664570
3.274414	1.664610
3.274902	1.664845
3.275391	1.664823
3.275879	1.664912
3.276367	1.664685
3.276855	1.664773
3.277344	1.664761
3.277832	1.664870
3.278320	1.664757
3.278809	1.664544
3.279297	1.664845
3.279785	1.664934
3.280273	1.665045
3.280762	1.664916
3.281250	1.664860
3.281738	1.664955
3.282227	1.664638
3.282715	1.664949
3.283203	1.664912
3.283691	1.664816
3.284180	1.664732
3.284668	1.664989
3.285156	1.664998
3.285645	1.664893
3.286133	1.664928
3.286621	1.664922
3.287109	1.665182
3.287598	1.664838
3.288086	1.664959
3.288574	1.664739
3.289062	1.664894
3.289551	1.665237
3.290039	1.664916
3.290527	1.664807
3.291016	1.664572
3.291504	1.664903
3.291992	1.664938
3.292480	1.664643
3.292969	1.664787
3.293457	1.664771
3.293945	1.664817
3.294434	1.664845
3.294922	1.664999
3.295410	1.664831
3.295898	1.664817
3.296387	1.664880
3.296875	1.665171
3.297363	1.665075
3.297852	1.664961
3.298340	1.664798
3.298828	1.665030
3.299316	1.665107
3.299805	1.664843
3.300293	1.665031
3.300781	1.664835
3.301270	1.664959
3.301758	1.664995
3.302246	1.665003
3.302734	1.664807
3.303223	1.665144
3.303711	1.665030
3.304199	1.665041
3.304687	1.664813
3.305176	1.664836
3.305664	1.664880
3.306152	1.664898
3.306641	1.665183
3.307129	1.665185
3.307617	1.664984
3.308105	1.665108
3.308594	1.665207
3.309082	1.665276
3.309570	1.664769
3.310059	1.664929
3.310547	1.665054
3.311035	1.665072
3.311523	1.665215
3.312012	1.665141
3.312500	1.665054
3.312988	1.664909
3.313477	1.665340
3.313965	1.665211
3.314453	1.665027
3.314941	1.664875
3.315430	1.665063
3.315918	1.665063
3.316406	1.664854
3.316895	1.664957
3.317383	1.664958
3.317871	1.664869
3.318359	1.665036
3.318848	1.665049
3.319336	1.664675
3.319824	1.664555
3.320312	1.665078
3.320801	1.664903
3.321289	1.665120
3.321777	1.665219
3.322266	1.664700
3.322754	1.664996
3.323242	1.664922
3.323730	1.665126
3.324219	1.664712
3.324707	1.664892
3.325195	1.664934
3.325684	1.664895
3.326172	1.665041
3.326660	1.664785
3.327148	1.664975
3.327637	1.665092
3.328125	1.665098
3.328613	1.664842
3.329102	1.664782
3.329590	1.664675
3.330078	1.664667
3.330566	1.664961
3.331055	1.664638
3.331543	1.664787
3.332031	1.664702
3.332520	1.664732
3.333008	1.664998
3.333496	1.664568
3.333984	1.664683
3.334473	1.664740
3.334961	1.664712
3.335449	1.664955
3.335937	1.664671
3.336426	1.664713
3.336914	1.664703
3.337402	1.664856
3.337891	1.665153
3.338379	1.664745
3.338867	1.665042
3.339355	1.664838
3.339844	1.665088
3.340332	1.664735
3.340820	1.664724
3.341309	1.664764
3.341797	1.664804
3.342285	1.665103
3.342773	1.665102
3.343262	1.664640
3.343750	1.664977
3.344238	1.664825
3.344727	1.665070
3.345215	1.664880
3.345703	1.664842
3.346191	1.664886
3.346680	1.665040
3.347168	1.664959
3.347656	1.665020
3.348145	1.664786
3.348633	1.664947
3.349121	1.664859
3.349609	1.665241
3.350098	1.665154
3.350586	1.664967
3.351074	1.664942
3.351562	1.665063
3.352051	1.665170
3.352539	1.665005
3.353027	1.664894
3.353516	1.665215
3.354004	1.665131
3.354492	1.664942
3.354980	1.665069
3.355469	1.665061
3.355957	1.665059
3.356445	1.665100
3.356934	1.665294
3.357422	1.665309
3.357910	1.664814
3.358398	1.665091
3.358887	1.665047
3.359375	1.665045
3.359863	1.665111
3.360352	1.664953
3.360840	1.665088
3.361328	1.665052
3.361816	1.665070
3.362305	1.664844
3.362793	1.664973
3.363281	1.664884
3.363770	1.664840
3.364258	1.665161
3.364746	1.664864
3.365234	1.664789
3.365723	1.664814
3.366211	1.665202
3.366699	1.664994
3.367187	1.665103
3.367676	1.664940
3.368164	1.664854
3.368652	1.664952
3.369141	1.664789
3.369629	1.664845
3.370117	1.664771
3.370605	1.664873
3.371094	1.664979
3.371582	1.665036
3.372070	1.664672
3.372559	1.664958
3.373047	1.664943
3.373535	1.665215
3.374023	1.665039
3.374512	1.665008
3.375000	1.664844
3.375488	1.664948
3.375977	1.665047
3.376465	1.664812
3.376953	1.664794
3.377441	1.664778
3.377930	1.665059
3.378418	1.664665
3.378906	1.664848
3.379395	1.664743
3.379883	1.664979
3.380371	1.665203
3.380859	1.664970
3.381348	1.664776
3.381836	1.664718
3.382324	1.664906
3.382812	1.664907
3.383301	1.664905
3.383789	1.664997
3.384277	1.664613
3.384766	1.665033
3.385254	1.664921
3.385742	1.665100
3.386230	1.664807
3.386719	1.664574
3.387207	1.665099
3.387695	1.665251
3.388184	1.665227
3.388672	1.664969
3.389160	1.665262
3.389648	1.665277
3.390137	1.665758
3.390625	1.665343
3.391113	1.665246
3.391602	1.665102
3.392090	1.665161
3.392578	1.665698
3.393066	1.665425
3.393555	1.665350
3.394043	1.665520
3.394531	1.665572
3.395020	1.665476
3.395508	1.665045
3.395996	1.665155
3.396484	1.665009
3.396973	1.665330
3.397461	1.665567
3.397949	1.665329
3.398437	1.665312
3.398926	1.665337
3.399414	1.665374
3.399902	1.665416
3.400391	1.665297
3.400879	1.665173
3.401367	1.665362
3.401855	1.665267
3.402344	1.665508
3.402832	1.665329
3.403320	1.665362
3.403809	1.665517
3.404297	1.665432
3.404785	1.665657
3.405273	1.665042
3.405762	1.665086
3.406250	1.665330
3.406738	1.665353
3.407227	1.665384
3.407715	1.665272
3.408203	1.665467
3.408691	1.665462
3.409180	1.665327
3.409668	1.665476
3.410156	1.664916
3.410645	1.664970
3.411133	1.665028
3.411621	1.665319
3.412109	1.664943
3.412598	1.664962
3.413086	1.665023
3.413574	1.665029
3.414062	1.665307
3.414551	1.665120
3.415039	1.664880
3.415527	1.664826
3.416016	1.664938
3.416504	1.664984
3.416992	1.665012
3.417480	1.665085
3.417969	1.664925
3.418457	1.664963
3.418945	1.665167
3.419434	1.664972
3.419922	1.664867
3.420410	1.665058
3.420898	1.664997
3.421387	1.665173
3.421875	1.664790
3.422363	1.664693
3.422852	1.664729
3.423340	1.664906
3.423828	1.664697
3.424316	1.664641
3.424805	1.664587
3.425293	1.664854
3.425781	1.664602
3.426270	1.664964
3.426758	1.664803
3.427246	1.664813
3.427734	1.665094
3.428223	1.664871
3.428711	1.664966
3.429199	1.665008
3.429687	1.664912
3.430176	1.664964
3.430664	1.665063
3.431152	1.664874
3.431641	1.664884
3.432129	1.664721
3.432617	1.664884
3.433105	1.664679
3.433594	1.664924
3.434082	1.664955
3.434570	1.664770
3.435059	1.664984
3.435547	1.664908
3.436035	1.665014
3.436523	1.664572
3.437012	1.664928
3.437500	1.664724
3.437988	1.664914
3.438477	1.664994
3.438965	1.664634
3.439453	1.664813
3.439941	1.664880
3.440430	1.664914
3.440918	1.664696
3.441406	1.664966
3.441895	1.664556
3.442383	1.664668
3.442871	1.665082
3.443359	1.664914
3.443848	1.665013
3.444336	1.664719
3.444824	1.665244
3.445312	1.665108
3.445801	1.664858
3.446289	1.664861
3.446777	1.664758
3.447266	1.664950
3.447754	1.665113
3.448242	1.664944
3.448730	1.664833
3.449219	1.665000
3.449707	1.665027
3.450195	1.665167
3.450684	1.664571
3.451172	1.664784
3.451660	1.664911
3.452148	1.665136
3.452637	1.664912
3.453125	1.664962
3.453613	1.664687
3.454102	1.664748
3.454590	1.665102
3.455078	1.664969
3.455566	1.664895
3.456055	1.664850
3.456543	1.665135
3.457031	1.665053
3.457520	1.665245
3.458008	1.664890
3.458496	1.664995
3.458984	1.665024
3.459473	1.665273
3.459961	1.665121
3.460449	1.664790
3.460937	1.664818
3.461426	1.664755
3.461914	1.665061
3.462402	1.664853
3.462891	1.664831
3.463379	1.664588
3.463867	1.665122
3.464355	1.664998
3.464844	1.665096
3.465332	1.665052
3.465820	1.665064
3.466309	1.664988
3.466797	1.665141
3.467285	1.665287
3.467773	1.665078
3.468262	1.665027
3.468750	1.665163
3.469238	1.665266
3.469727	1.665211
3.470215	1.665256
3.470703	1.665070
3.471191	1.665336
3.471680	1.665539
3.472168	1.665339
3.472656	1.665114
3.473145	1.665225
3.473633	1.665409
3.474121	1.665413
3.474609	1.664926
3.475098	1.665191
3.475586	1.665074
3.476074	1.665110
3.476562	1.665219
3.477051	1.665187
3.477539	1.665079
3.478027	1.665205
3.478516	1.665243
3.479004	1.665140
3.479492	1.665042
3.479980	1.665197
3.480469	1.665207
3.480957	1.665022
3.481445	1.665355
3.481934	1.665168
3.482422	1.665084
3.482910	1.665169
3.483398	1.665337
3.483887	1.665385
3.484375	1.665269
3.484863	1.665152
3.485352	1.665370
3.485840	1.665218
3.486328	1.665373
3.486816	1.665070
3.487305	1.665294
3.487793	1.665351
3.488281	1.665570
3.488770	1.665303
3.489258	1.665196
3.489746	1.665282
3.490234	1.665045
3.490723	1.665374
3.491211	1.665123
3.491699	1.665224
3.492187	1.665099
3.492676	1.665272
3.493164	1.665123
3.493652	1.665095
3.494141	1.664947
3.494629	1.665156
3.495117	1.665058
3.495605	1.665052
3.496094	1.665136
3.496582	1.665113
3.497070	1.665169
3.497559	1.665324
3.498047	1.665405
3.498535	1.664994
3.499023	1.665196
3.499512	1.664800
3.500000	1.665103
3.500488	1.664874
3.500977	1.664837
3.501465	1.664815
3.501953	1.665082
3.502441	1.664944
3.502930	1.664900
3.503418	1.665053
3.503906	1.664720
3.504395	1.664858
3.504883	1.664945
3.505371	1.665011
3.505859	1.664878
3.506348	1.664543
3.506836	1.664827
3.507324	1.665038
3.507812	1.664939
3.508301	1.664788
3.508789	1.664705
3.509277	1.664958
3.509766	1.665032
3.510254	1.664981
3.510742	1.664751
3.511230	1.664835
3.511719	1.665031
3.512207	1.664956
3.512695	1.664716
3.513184	1.664622
3.513672	1.664748
3.514160	1.664815
3.514648	1.664850
3.515137	1.664875
3.515625	1.664555
3.516113	1.664810
3.516602	1.664694
3.517090	1.664710
3.517578	1.664535
3.518066	1.664572
3.518555	1.664568
3.519043	1.664516
3.519531	1.665023
3.520020	1.664720
3.520508	1.664549
3.520996	1.664565
3.521484	1.664770
3.521973	1.664669
3.522461	1.664505
3.522949	1.664493
3.523437	1.664606
3.523926	1.664635
3.524414	1.664581
3.524902	1.664604
3.525391	1.664440
3.525879	1.664532
3.526367	1.664839
3.526855	1.664789
3.527344	1.664640
3.527832	1.664760
3.528320	1.664686
3.528809	1.664695
3.529297	1.664853
3.529785	1.664482
3.530273	1.664621
3.530762	1.664657
3.531250	1.664828
3.531738	1.664916
3.532227	1.664577
3.532715	1.664568
3.533203	1.664775
3.533691	1.664787
3.534180	1.664848
3.534668	1.664812
3.535156	1.664804
3.535645	1.665013
3.536133	1.665104
3.536621	1.665284
3.537109	1.665053
3.537598	1.664987
3.538086	1.665382
3.538574	1.665299
3.539062	1.665195
3.539551	1.665114
3.540039	1.665197
3.540527	1.664976
3.541016	1.665265
3.541504	1.665063
3.541992	1.665081
3.542480	1.665113
3.542969	1.665338
3.543457	1.665592
3.543945	1.665196
3.544434	1.665130
3.544922	1.665002
3.545410	1.665154
3.545898	1.665409
3.546387	1.665194
3.546875	1.665251
3.547363	1.665264
3.547852	1.665617
3.548340	1.665361
3.548828	1.665280
3.549316	1.665067
3.549805	1.664938
3.550293	1.665377
3.550781	1.665108
3.551270	1.665028
3.551758	1.664834
3.552246	1.665200
3.552734	1.665420
3.553223	1.665119
3.553711	1.665037
3.554199	1.664978
3.554687	1.665005
3.555176	1.665362
3.555664	1.665315
3.556152	1.664870
3.556641	1.665080
3.557129	1.665393
3.557617	1.665241
3.558105	1.665416
3.558594	1.664837
3.559082	1.665158
3.559570	1.665249
3.560059	1.665280
3.560547	1.665062
3.561035	1.665179
3.561523	1.664713
3.562012	1.665086
3.562500	1.665575
3.562988	1.665201
3.563477	1.665463
3.563965	1.665338
3.564453	1.665378
3.564941	1.665301
3.565430	1.665539
3.565918	1.665146
3.566406	1.665404
3.566895	1.665197
3.567383	1.665429
3.567871	1.665214
3.568359	1.665175
3.568848	1.665180
3.569336	1.665207
3.569824	1.665493
3.570312	1.665240
3.570801	1.665144
3.571289	1.665128
3.571777	1.665356
3.572266	1.665205
3.572754	1.665532
3.573242	1.665005
3.573730	1.665092
3.574219	1.665229
3.574707	1.665452
3.575195	1.665210
3.575684	1.665339
3.576172	1.665521
3.576660	1.665499
3.577148	1.665710
3.577637	1.665416
3.578125	1.665390
3.578613	1.665575
3.579102	1.665609
3.579590	1.665444
3.580078	1.665316
3.580566	1.665272
3.581055	1.665348
3.581543	1.665629
3.582031	1.665201
3.582520	1.665332
3.583008	1.665471
3.583496	1.665556
3.583984	1.665420
3.584473	1.665273
3.584961	1.665131
3.585449	1.665364
3.585937	1.665370
3.586426	1.665219
3.586914	1.665260
3.587402	1.665117
3.587891	1.665366
3.588379	1.665280
3.588867	1.665431
3.589355	1.665205
3.589844	1.665072
3.590332	1.665129
3.590820	1.665059
3.591309	1.665279
3.591797	1.665036
3.592285	1.665145
3.592773	1.665459
3.593262	1.665313
3.593750	1.665589
3.594238	1.665243
3.594727	1.665197
3.595215	1.665236
3.595703	1.665245
3.596191	1.665166
3.596680	1.665035
3.597168	1.665175
3.597656	1.665221
3.598145	1.665334
3.598633	1.665072
3.599121	1.665265
3.599609	1.664975
3.600098	1.665131
3.600586	1.665064
3.601074	1.664817
3.601562	1.665026
3.602051	1.664873
3.602539	1.665302
3.603027	1.665431
3.603516	1.665345
3.604004	1.665100
3.604492	1.665499
3.604980	1.665351
3.605469	1.665402
3.605957	1.665427
3.606445	1.665239
3.606934	1.665445
3.607422	1.665395
3.607910	1.665603
3.608398	1.665488
3.608887	1.665386
3.609375	1.665542
3.609863	1.665618
3.610352	1.665616
3.610840	1.665376
3.611328	1.665177
3.611816	1.665337
3.612305	1.665399
3.612793	1.665437
3.613281	1.665332
3.613770	1.665191
3.614258	1.665333
3.614746	1.665337
3.615234	1.665496
3.615723	1.665398
3.616211	1.665296
3.616699	1.665556
3.617187	1.665672
3.617676	1.665659
3.618164	1.665637
3.618652	1.665662
3.619141	1.665504
3.619629	1.665870
3.620117	1.665607
3.620605	1.665545
3.621094	1.665373
3.621582	1.665643
3.622070	1.665928
3.622559	1.665740
3.623047	1.665837
3.623535	1.665458
3.624023	1.665749
3.624512	1.665822
3.625000	1.665633
3.625488	1.665654
3.625977	1.665592
3.626465	1.665856
3.626953	1.665825
3.627441	1.665875
3.627930	1.665757
3.628418	1.665737
3.628906	1.665825
3.629395	1.665811
3.629883	1.665805
3.630371	1.665653
3.630859	1.665706
3.631348	1.665609
3.631836	1.665744
3.632324	1.665840
3.632812	1.665543
3.633301	1.665570
3.633789	1.665766
3.634277	1.665779
3.634766	1.665926
3.635254	1.665648
3.635742	1.665877
3.636230	1.665966
3.636719	1.665914
3.637207	1.665650
3.637695	1.665901
3.638184	1.665729
3.638672	1.665797
3.639160	1.665696
3.639648	1.665666
3.640137	1.665249
3.640625	1.665647
3.641113	1.665460
3.641602	1.665429
3.642090	1.665653
3.642578	1.665373
3.643066	1.665457
3.643555	1.665474
3.644043	1.665612
3.644531	1.665448
3.645020	1.665619
3.645508	1.665445
3.645996	1.665620
3.646484	1.665636
3.646973	1.665464
3.647461	1.665778
3.647949	1.665744
3.648437	1.665913
3.648926	1.665719
3.649414	1.665744
3.649902	1.665528
3.650391	1.665764
3.650879	1.665638
3.651367	1.665672
3.651855	1.665402
3.652344	1.665530
3.652832	1.665647
3.653320	1.665434
3.653809	1.665423
3.654297	1.665260
3.654785	1.665465
3.655273	1.665674
3.655762	1.665548
3.656250	1.665428
3.656738	1.665308
3.657227	1.665571
3.657715	1.665764
3.658203	1.665800
3.658691	1.665578
3.659180	1.665462
3.659668	1.665761
3.660156	1.665474
3.660645	1.665492
3.661133	1.665396
3.661621	1.665322
3.662109	1.665586
3.662598	1.665603
3.663086	1.665514
3.663574	1.665365
3.664062	1.665236
3.664551	1.665389
3.665039	1.665341
3.665527	1.665279
3.666016	1.665153
3.666504	1.665086
3.666992	1.665223
3.667480	1.665640
3.667969	1.665479
3.668457	1.665279
3.668945	1.665268
3.669434	1.665192
3.669922	1.665380
3.670410	1.665199
3.670898	1.665036
3.671387	1.665124
3.671875	1.665006
3.672363	1.665298
3.672852	1.665324
3.673340	1.664905
3.673828	1.664917
3.674316	1.665092
3.674805	1.665308
3.675293	1.664971
3.675781	1.665036
3.676270	1.664972
3.676758	1.665321
3.677246	1.665240
3.677734	1.664994
3.678223	1.664868
3.678711	1.664725
3.679199	1.665022
3.679687	1.664868
3.680176	1.664730
3.680664	1.664323
3.681152	1.664962
3.681641	1.664942
3.682129	1.665241
3.682617	1.665028
3.683105	1.664741
3.683594	1.664944
3.684082	1.664995
3.684570	1.665119
3.685059	1.664790
3.685547	1.664898
3.686035	1.665042
3.686523	1.664986
3.687012	1.664995
3.687500	1.664801
3.687988	1.664942
3.688477	1.664630
3.688965	1.664707
3.689453	1.664936
3.689941	1.664784
3.690430	1.664599
3.690918	1.664579
3.691406	1.664768
3.691895	1.664571
3.692383	1.664631
3.692871	1.664635
3.693359	1.664647
3.693848	1.664682
3.694336	1.664853
3.694824	1.664328
3.695312	1.664317
3.695801	1.664720
3.696289	1.664692
3.696777	1.664806
3.697266	1.664643
3.697754	1.664928
3.698242	1.665037
3.698730	1.664908
3.699219	1.664795
3.699707	1.664460
3.700195	1.664768
3.700684	1.664815
3.701172	1.664896
3.701660	1.664903
3.702148	1.664726
3.702637	1.664698
3.703125	1.665079
3.703613	1.664836
3.704102	1.664894
3.704590	1.664812
3.705078	1.664740
3.705566	1.664829
3.706055	1.664763
3.706543	1.664674
3.707031	1.664496
3.707520	1.664734
3.708008	1.665112
3.708496	1.664895
3.708984	1.664782
3.709473	1.664869
3.709961	1.665024
3.710449	1.664701
3.710937	1.664962
3.711426	1.664635
3.711914	1.664838
3.712402	1.665009
3.712891	1.665009
3.713379	1.664978
3.713867	1.664947
3.714355	1.664967
3.714844	1.664975
3.715332	1.665049
3.715820	1.665196
3.716309	1.664930
3.716797	1.664756
3.717285	1.665144
3.717773	1.665256
3.718262	1.665058
3.718750	1.664942
3.719238	1.664584
3.719727	1.665184
3.720215	1.664862
3.720703	1.664615
3.721191	1.664538
3.721680	1.664736
3.722168	1.665036
3.722656	1.664775
3.723145	1.664994
3.723633	1.664714
3.724121	1.664651
3.724609	1.664986
3.725098	1.665028
3.725586	1.664979
3.726074	1.664952
3.726562	1.664933
3.727051	1.665219
3.727539	1.665277
3.728027	1.665164
3.728516	1.664797
3.729004	1.665155
3.729492	1.665251
3.729980	1.665153
3.730469	1.665362
3.730957	1.664983
3.731445	1.665119
3.731934	1.665246
3.732422	1.665183
3.732910	1.665029
3.733398	1.664806
3.733887	1.664956
3.734375	1.665175
3.734863	1.665225
3.735352	1.664952
3.735840	1.664979
3.736328	1.665212
3.736816	1.665277
3.737305	1.665377
3.737793	1.665092
3.738281	1.665102
3.738770	1.665281
3.739258	1.665352
3.739746	1.665357
3.740234	1.664988
3.740723	1.664843
3.741211	1.665283
3.741699	1.665089
3.742187	1.665371
3.742676	1.665128
3.743164	1.665224
3.743652	1.665354
3.744141	1.665458
3.744629	1.665415
3.745117	1.664980
3.745605	1.664997
3.746094	1.665221
3.746582	1.665218
3.747070	1.664927
3.747559	1.665081
3.748047	1.665119
3.748535	1.665036
3.749023	1.665173
3.749512	1.665042
3.750000	1.664942
3.750488	1.664912
3.750977	1.665046
3.751465	1.665030
3.751953	1.664777
3.752441	1.664982
3.752930	1.664809
3.753418	1.665232
3.753906	1.665048
3.754395	1.664869
3.754883	1.664993
3.755371	1.664908
3.755859	1.665252
3.756348	1.665078
3.756836	1.664999
3.757324	1.665048
3.757812	1.664889
3.758301	1.665117
3.758789	1.664826
3.759277	1.664712
3.759766	1.664678
3.760254	1.664814
3.760742	1.665288
3.761230	1.664857
3.761719	1.664679
3.762207	1.664739
3.762695	1.664739
3.763184	1.664899
3.763672	1.664659
3.764160	1.664656
3.764648	1.664752
3.765137	1.664869
3.765625	1.665136
3.766113	1.664673
3.766602	1.664718
3.767090	1.664729
3.767578	1.664995
3.768066	1.664990
3.768555	1.664845
3.769043	1.665078
3.769531	1.664444
3.770020	1.664757
3.770508	1.664841
3.770996	1.664424
3.771484	1.664676
3.771973	1.664675
3.772461	1.664736
3.772949	1.664645
3.773437	1.664899
3.773926	1.664644
3.774414	1.664648
3.774902	1.664785
3.775391	1.664652
3.775879	1.664730
3.776367	1.664694
3.776855	1.664613
3.777344	1.664837
3.777832	1.664705
3.778320	1.664632
3.778809	1.664302
3.779297	1.664511
3.779785	1.664641
3.780273	1.664637
3.780762	1.664524
3.781250	1.664552
3.781738	1.664771
3.782227	1.664732
3.782715	1.664701
3.783203	1.664455
3.783691	1.664435
3.784180	1.664740
3.784668	1.664544
3.785156	1.664641
3.785645	1.664513
3.786133	1.664006
3.786621	1.664381
3.787109	1.664507
3.787598	1.664414
3.788086	1.664168
3.788574	1.664166
3.789062	1.664352
3.789551	1.664458
3.790039	1.664353
3.790527	1.664282
3.791016	1.664258
3.791504	1.664457
3.791992	1.664576
3.792480	1.664203
3.792969	1.664204
3.793457	1.664272
3.793945	1.664413
3.794434	1.664633
3.794922	1.664804
3.795410	1.664317
3.795898	1.664537
3.796387	1.664947
3.796875	1.664836
3.797363	1.664779
3.797852	1.664507
3.798340	1.664469
3.798828	1.664720
3.799316	1.664786
3.799805	1.664447
3.800293	1.664362
3.800781	1.664332
3.801270	1.664720
3.801758	1.664581
3.802246	1.664413
3.802734	1.664441
3.803223	1.664808
3.803711	1.664855
3.804199	1.665054
3.804687	1.664885
3.805176	1.664737
3.805664	1.664939
3.806152	1.664860
3.806641	1.665086
3.807129	1.664710
3.807617	1.664747
3.808105	1.664884
3.808594	1.665035
3.809082	1.664836
3.809570	1.664859
3.810059	1.664902
3.810547	1.664982
3.811035	1.665177
3.811523	1.664829
3.812012	1.664906
3.812500	1.664614
3.812988	1.665036
3.813477	1.664939
3.813965	1.664975
3.814453	1.665055
3.814941	1.664901
3.815430	1.665039
3.815918	1.665199
3.816406	1.665102
3.816895	1.664806
3.817383	1.664863
3.817871	1.665183
3.818359	1.665242
3.818848	1.665089
3.819336	1.664773
3.819824	1.665102
3.820312	1.664947
3.820801	1.665009
3.821289	1.664986
3.821777	1.664991
3.822266	1.664950
3.822754	1.665271
3.823242	1.665150
3.823730	1.665108
3.824219	1.664988
3.824707	1.665059
3.825195	1.665145
3.825684	1.664907
3.826172	1.664929
3.826660	1.664659
3.827148	1.665060
3.827637	1.665050
3.828125	1.665166
3.828613	1.664998
3.829102	1.665023
3.829590	1.664948
3.830078	1.665020
3.830566	1.665055
3.831055	1.664806
3.831543	1.664874
3.832031	1.665041
3.832520	1.665106
3.833008	1.665012
3.833496	1.664847
3.833984	1.664836
3.834473	1.665009
3.834961	1.665269
3.835449	1.664911
3.835937	1.664888
3.836426	1.664929
3.836914	1.664958
3.837402	1.665305
3.837891	1.665035
3.838379	1.665408
3.838867	1.664798
3.839355	1.665086
3.839844	1.665019
3.840332	1.664808
3.840820	1.664698
3.841309	1.664904
3.841797	1.665092
3.842285	1.665009
3.842773	1.665091
3.843262	1.664898
3.843750	1.664883
3.844238	1.665019
3.844727	1.665233
3.845215	1.664910
3.845703	1.665205
3.846191	1.664892
3.846680	1.665291
3.847168	1.665119
3.847656	1.665012
3.848145	1.664882
3.848633	1.665058
3.849121	1.665413
3.849609	1.665232
3.850098	1.665109
3.850586	1.665130
3.851074	1.665194
3.851562	1.664998
3.852051	1.665112
3.852539	1.665047
3.853027	1.664957
3.853516	1.664876
3.854004	1.664980
3.854492	1.665006
3.854980	1.664732
3.855469	1.664451
3.855957	1.664913
3.856445	1.664772
3.856934	1.664761
3.857422	1.664740
3.857910	1.664608
3.858398	1.664779
3.858887	1.664674
3.859375	1.664755
3.859863	1.664444
3.860352	1.664279
3.860840	1.664660
3.861328	1.664719
3.861816	1.664624
3.862305	1.664286
3.862793	1.664533
3.863281	1.664528
3.863770	1.664936
3.864258	1.664504
3.864746	1.664411
3.865234	1.664405
3.865723	1.664462
3.866211	1.664463
3.866699	1.664571
3.867187	1.664319
3.867676	1.664297
3.868164	1.664597
3.868652	1.664437
3.869141	1.664493
3.869629	1.664283
3.870117	1.664415
3.870605	1.664352
3.871094	1.664253
3.871582	1.664292
3.872070	1.664187
3.872559	1.664187
3.873047	1.664549
3.873535	1.664615
3.874023	1.664421
3.874512	1.664389
3.875000	1.664653
3.875488	1.664673
3.875977	1.664612
3.876465	1.664519
3.876953	1.664550
3.877441	1.664664
3.877930	1.664877
3.878418	1.664494
3.878906	1.664754
3.879395	1.664473
3.879883	1.664748
3.880371	1.664814
3.880859	1.664742
3.881348	1.664474
3.881836	1.664740
3.882324	1.664631
3.882812	1.664770
3.883301	1.664928
3.883789	1.664934
3.884277	1.664790
3.884766	1.664961
3.885254	1.664949
3.885742	1.664649
3.886230	1.664919
3.886719	1.664966
3.887207	1.665213
3.887695	1.665191
3.888184	1.665332
3.888672	1.665417
3.889160	1.665060
3.889648	1.665229
3.890137	1.665136
3.890625	1.665038
3.891113	1.664962
3.891602	1.665119
3.892090	1.665214
3.892578	1.665188
3.893066	1.665207
3.893555	1.665097
3.894043	1.664865
3.894531	1.665195
3.895020	1.665370
3.895508	1.665138
3.895996	1.665116
3.896484	1.664893
3.896973	1.665301
3.897461	1.665025
3.897949	1.665120
3.898437	1.664888
3.898926	1.664991
3.899414	1.665215
3.899902	1.665199
3.900391	1.664972
3.900879	1.664967
3.901367	1.665112
3.901855	1.665306
3.902344	1.665306
3.902832	1.665022
3.903320	1.665013
3.903809	1.664875
3.904297	1.664988
3.904785	1.665081
3.905273	1.664797
3.905762	1.664881
3.906250	1.664977
3.906738	1.665118
3.907227	1.665076
3.907715	1.664980
3.908203	1.664715
3.908691	1.664881
3.909180	1.664988
3.909668	1.664832
3.910156	1.664786
3.910645	1.664768
3.911133	1.664830
3.911621	1.664782
3.912109	1.664553
3.912598	1.664704
3.913086	1.664472
3.913574	1.664942
3.914062	1.665034
3.914551	1.664789
3.915039	1.664864
3.915527	1.664748
3.916016	1.665086
3.916504	1.665125
3.916992	1.664621
3.917480	1.664832
3.917969	1.664814
3.918457	1.664820
3.918945	1.664969
3.919434	1.664658
3.919922	1.664623
3.920410	1.664829
3.920898	1.664707
3.921387	1.664710
3.921875	1.664526
3.922363	1.664543
3.922852	1.664538
3.923340	1.664510
3.923828	1.664935
3.924316	1.664602
3.924805	1.664560
3.925293	1.664483
3.925781	1.664845
3.926270	1.664523
3.926758	1.664556
3.927246	1.664454
3.927734	1.664859
3.928223	1.664782
3.928711	1.664886
3.929199	1.664488
3.929687	1.664646
3.930176	1.664685
3.930664	1.664945
3.931152	1.664569
3.931641	1.664863
3.932129	1.664573
3.932617	1.664721
3.933105	1.664880
3.933594	1.664754
3.934082	1.664951
3.934570	1.664601
3.935059	1.664790
3.935547	1.664878
3.936035	1.664864
3.936523	1.664388
3.937012	1.664361
3.937500	1.664722
3.937988	1.664748
3.938477	1.664398
3.938965	1.664515
3.939453	1.664543
3.939941	1.664720
3.940430	1.664784
3.940918	1.664601
3.941406	1.664803
3.941895	1.664754
3.942383	1.664916
3.942871	1.664800
3.943359	1.664931
3.943848	1.664778
3.944336	1.665088
3.944824	1.664829
3.945312	1.665080
3.945801	1.664785
3.946289	1.664750
3.946777	1.664988
3.947266	1.664837
3.947754	1.665106
3.948242	1.664864
3.948730	1.664695
3.949219	1.664667
3.949707	1.664975
3.950195	1.664943
3.950684	1.664710
3.951172	1.664570
3.951660	1.664737
3.952148	1.664747
3.952637	1.664891
3.953125	1.665041
3.953613	1.664726
3.954102	1.664869
3.954590	1.664971
3.955078	1.664916
3.955566	1.664785
3.956055	1.664769
3.956543	1.664863
3.957031	1.665008
3.957520	1.665132
3.958008	1.664855
3.958496	1.665154
3.958984	1.665161
3.959473	1.665114
3.959961	1.665011
3.960449	1.664757
3.960937	1.665059
3.961426	1.664790
3.961914	1.664983
3.962402	1.665208
3.962891	1.664918
3.963379	1.664909
3.963867	1.665276
3.964355	1.665170
3.964844	1.665299
3.965332	1.665114
3.965820	1.665200
3.966309	1.665353
3.966797	1.665485
3.967285	1.665338
3.967773	1.665289
3.968262	1.665393
3.968750	1.665334
3.969238	1.665526
3.969727	1.665282
3.970215	1.665377
3.970703	1.665357
3.971191	1.665384
3.971680	1.665443
3.972168	1.665432
3.972656	1.665240
3.973145	1.665293
3.973633	1.665432
3.974121	1.665371
3.974609	1.665467
3.975098	1.665351
3.975586	1.665365
3.976074	1.665476
3.976562	1.665421
3.977051	1.665385
3.977539	1.665364
3.978027	1.665429
3.978516	1.665601
3.979004	1.665425
3.979492	1.665405
3.979980	1.665385
3.980469	1.665659
3.980957	1.665435
3.981445	1.665786
3.981934	1.665382
3.982422	1.665352
3.982910	1.665833
3.983398	1.665756
3.983887	1.665794
3.984375	1.665646
3.984863	1.665596
3.985352	1.666032
3.985840	1.665799
3.986328	1.665773
3.986816	1.665631
3.987305	1.665603
3.987793	1.665741
3.988281	1.665867
3.988770	1.665503
3.989258	1.665631
3.989746	1.665449
3.990234	1.665819
3.990723	1.665723
3.991211	1.665324
3.991699	1.665482
3.992187	1.665500
3.992676	1.665708
3.993164	1.665506
3.993652	1.665410
3.994141	1.665182
3.994629	1.665509
3.995117	1.665609
3.995605	1.665652
3.996094	1.665781
3.996582	1.665446
3.997070	1.665863
3.997559	1.665755
3.998047	1.665754
3.998535	1.665310
3.999023	1.665507
3.999512	1.665593
4.000000	1.665652
4.000488	1.665336
4.000977	1.665242
4.001465	1.665357
4.001953	1.665559
4.002441	1.665798
4.002930	1.665304
4.003418	1.665548
4.003906	1.665344
4.004395	1.665639
4.004883	1.665352
4.005371	1.665367
4.005859	1.665142
4.006348	1.665113
4.006836	1.665472
4.007324	1.665461
4.007812	1.665348
4.008301	1.665086
4.008789	1.665189
4.009277	1.665442
4.009766	1.665450
4.010254	1.665160
4.010742	1.665172
4.011230	1.665045
4.011719	1.664934
4.012207	1.665389
4.012695	1.665021
4.013184	1.664998
4.013672	1.665016
4.014160	1.665226
4.014648	1.665380
4.015137	1.665110
4.015625	1.665027
4.016113	1.665162
4.016602	1.665145
4.017090	1.665205
4.017578	1.664881
4.018066	1.664857
4.018555	1.665036
4.019043	1.664940
4.019531	1.665183
4.020020	1.664972
4.020508	1.664798
4.020996	1.664936
4.021484	1.665091
4.021973	1.665199
4.022461	1.664686
4.022949	1.664896
4.023437	1.665053
4.023926	1.665243
4.024414	1.664923
4.024902	1.664892
4.025391	1.665156
4.025879	1.665111
4.026367	1.665313
4.026855	1.665088
4.027344	1.665044
4.027832	1.665054
4.028320	1.665309
4.028809	1.665111
4.029297	1.665177
4.029785	1.664941
4.030273	1.665041
4.030762	1.665056
4.031250	1.665236
4.031738	1.664867
4.032227	1.664925
4.032715	1.665030
4.033203	1.665094
4.033691	1.665147
4.034180	1.664928
4.034668	1.665045
4.035156	1.664885
4.035645	1.664977
4.036133	1.665016
4.036621	1.664908
4.037109	1.664806
4.037598	1.664897
4.038086	1.664928
4.038574	1.665032
4.039062	1.664882
4.039551	1.664765
4.040039	1.665109
4.040527	1.665336
4.041016	1.665197
4.041504	1.664980
4.041992	1.665288
4.042480	1.664814
4.042969	1.665236
4.043457	1.664991
4.043945	1.664808
4.044434	1.664951
4.044922	1.665068
4.045410	1.665261
4.045898	1.665121
4.046387	1.664974
4.046875	1.664998
4.047363	1.665244
4.047852	1.665100
4.048340	1.665116
4.048828	1.664886
4.049316	1.665053
4.049805	1.665042
4.050293	1.665233
4.050781	1.665097
4.051270	1.664938
4.051758	1.664902
4.052246	1.665293
4.052734	1.665553
4.053223	1.665117
4.053711	1.665425
4.054199	1.665006
4.054687	1.665312
4.055176	1.665406
4.055664	1.665081
4.056152	1.664950
4.056641	1.665065
4.057129	1.665467
4.057617	1.665225
4.058105	1.665175
4.058594	1.665153
4.059082	1.665320
4.059570	1.665359
4.060059	1.665499
4.060547	1.665267
4.061035	1.665299
4.061523	1.665289
4.062012	1.665573
4.062500	1.665614
4.062988	1.665245
4.063477	1.665645
4.063965	1.665656
4.064453	1.665931
4.064941	1.665694
4.065430	1.665777
4.065918	1.665555
4.066406	1.665593
4.066895	1.665731
4.067383	1.665767
4.067871	1.665703
4.068359	1.665734
4.068848	1.665897
4.069336	1.665964
4.069824	1.665866
4.070312	1.665607
4.070801	1.665714
4.071289	1.666025
4.071777	1.665671
4.072266	1.665843
4.072754	1.665596
4.073242	1.665778
4.073730	1.665953
4.074219	1.665891
4.074707	1.666124
4.075195	1.665833
4.075684	1.665766
4.076172	1.666094
4.076660	1.666174
4.077148	1.666105
4.077637	1.665864
4.078125	1.666256
4.078613	1.666295
4.079102	1.665806
4.079590	1.666162
4.080078	1.665764
4.080566	1.666063
4.081055	1.666154
4.081543	1.666135
4.082031	1.665906
4.082520	1.665961
4.083008	1.666159
4.083496	1.666090
4.083984	1.665923
4.084473	1.665933
4.084961	1.665842
4.085449	1.665788
4.085937	1.666029
4.086426	1.665748
4.086914	1.665725
4.087402	1.665695
4.087891	1.665840
4.088379	1.665958
4.088867	1.665964
4.089355	1.665606
4.089844	1.665510
4.090332	1.665780
4.090820	1.665909
4.091309	1.665736
4.091797	1.665496
4.092285	1.665620
4.092773	1.665540
4.093262	1.665939
4.093750	1.665330
4.094238	1.665225
4.094727	1.665639
4.095215	1.665554
4.095703	1.665443
4.096191	1.665512
4.096680	1.665326
4.097168	1.665404
4.097656	1.665910
4.098145	1.665396
4.098633	1.665369
4.099121	1.665213
4.099609	1.665221
4.100098	1.665615
4.100586	1.665368
4.101074	1.665257
4.101562	1.664926
4.102051	1.665161
4.102539	1.665245
4.103027	1.665251
4.103516	1.665310
4.104004	1.664847
4.104492	1.665249
4.104980	1.665445
4.105469	1.665238
4.105957	1.665088
4.106445	1.665102
4.106934	1.665174
4.107422	1.665416
4.107910	1.665322
4.108398	1.665077
4.108887	1.665044
4.109375	1.665537
4.109863	1.665122
4.110352	1.665046
4.110840	1.664812
4.111328	1.664745
4.111816	1.665155
4.112305	1.664748
4.112793	1.665113
4.113281	1.664883
4.113770	1.664916
4.114258	1.665011
4.114746	1.665257
4.115234	1.664848
4.115723	1.664929
4.116211	1.665016
4.116699	1.665082
4.117187	1.665075
4.117676	1.665175
4.118164	1.665023
4.118652	1.664962
4.119141	1.665066
4.119629	1.665204
4.120117	1.665120
4.120605	1.664967
4.121094	1.664775
4.121582	1.665004
4.122070	1.665020
4.122559	1.665080
4.123047	1.664941
4.123535	1.664714
4.124023	1.665236
4.124512	1.664805
4.125000	1.664711
4.125488	1.664707
4.125977	1.664767
4.126465	1.664781
4.126953	1.664798
4.127441	1.664906
4.127930	1.664756
4.128418	1.664604
4.128906	1.664955
4.129395	1.664906
4.129883	1.664732
4.130371	1.664924
4.130859	1.664936
4.131348	1.665316
4.131836	1.664897
4.132324	1.664829
4.132812	1.664717
4.133301	1.664887
4.133789	1.664987
4.134277	1.664861
4.134766	1.664913
4.135254	1.664914
4.135742	1.664779
4.136230	1.664944
4.136719	1.664891
4.137207	1.664598
4.137695	1.664917
4.138184	1.664857
4.138672	1.664990
4.139160	1.664765
4.139648	1.664763
4.140137	1.664695
4.140625	1.664817
4.141113	1.664998
4.141602	1.664894
4.142090	1.664772
4.142578	1.664876
4.143066	1.665305
4.143555	1.665301
4.144043	1.665019
4.144531	1.664972
4.145020	1.664967
4.145508	1.665151
4.145996	1.665218
4.146484	1.664835
4.146973	1.664895
4.147461	1.665260
4.147949	1.665349
4.148437	1.665204
4.148926	1.665159
4.149414	1.665020
4.149902	1.665129
4.150391	1.665334
4.150879	1.665342
4.151367	1.664952
4.151855	1.665219
4.152344	1.665531
4.152832	1.665449
4.153320	1.665599
4.153809	1.665085
4.154297	1.665366
4.154785	1.665383
4.155273	1.665446
4.155762	1.665294
4.156250	1.665361
4.156738	1.665224
4.157227	1.665341
4.157715	1.665748
4.158203	1.665548
4.158691	1.665687
4.159180	1.665399
4.159668	1.665569
4.160156	1.665470
4.160645	1.665581
4.161133	1.665371
4.161621	1.665410
4.162109	1.665579
4.162598	1.665590
4.163086	1.665525
4.163574	1.665319
4.164062	1.665444
4.164551	1.665496
4.165039	1.665809
4.165527	1.665354
4.166016	1.665085
4.166504	1.665401
4.166992	1.665601
4.167480	1.665651
4.167969	1.665628
4.168457	1.665416
4.168945	1.665321
4.169434	1.665941
4.169922	1.665678
4.170410	1.665618
4.170898	1.665550
4.171387	1.665522
4.171875	1.665929
4.172363	1.665798
4.172852	1.665570
4.173340	1.665470
4.173828	1.665433
4.174316	1.665710
4.174805	1.665767
4.175293	1.665520
4.175781	1.665319
4.176270	1.665683
4.176758	1.665649
4.177246	1.665542
4.177734	1.665652
4.178223	1.665346
4.178711	1.665672
4.179199	1.665671
4.179687	1.665623
4.180176	1.665316
4.180664	1.665404
4.181152	1.665488
4.181641	1.665672
4.182129	1.665441
4.182617	1.665371
4.183105	1.665315
4.183594	1.665495
4.184082	1.665568
4.184570	1.665507
4.185059	1.665482
4.185547	1.665516
4.186035	1.665651
4.186523	1.665667
4.187012	1.665498
4.187500	1.665535
4.187988	1.665697
4.188477	1.665648
4.188965	1.665604
4.189453	1.665562
4.189941	1.665565
4.190430	1.665035
4.190918	1.665476
4.191406	1.665229
4.191895	1.665233
4.192383	1.665050
4.192871	1.665344
4.193359	1.665225
4.193848	1.665281
4.194336	1.665155
4.194824	1.665016
4.195312	1.665108
4.195801	1.665203
4.196289	1.665307
4.196777	1.664869
4.197266	1.664892
4.197754	1.665394
4.198242	1.665420
4.198730	1.665152
4.199219	1.665254
4.199707	1.665261
4.200195	1.665303
4.200684	1.665415
4.201172	1.665434
4.201660	1.665243
4.202148	1.665105
4.202637	1.665494
4.203125	1.665166
4.203613	1.665312
4.204102	1.664818
4.204590	1.664818
4.205078	1.665352
4.205566	1.665095
4.206055	1.665205
4.206543	1.664969
4.207031	1.665129
4.207520	1.665235
4.208008	1.665292
4.208496	1.665125
4.208984	1.664880
4.209473	1.665181
4.209961	1.665241
4.210449	1.665111
4.210937	1.665095
4.211426	1.664971
4.211914	1.665080
4.212402	1.665268
4.212891	1.665314
4.213379	1.665138
4.213867	1.665036
4.214355	1.665276
4.214844	1.665426
4.215332	1.665311
4.215820	1.665274
4.216309	1.665423
4.216797	1.665063
4.217285	1.665274
4.217773	1.665422
4.218262	1.665122
4.218750	1.664914
4.219238	1.665076
4.219727	1.665332
4.220215	1.665114
4.220703	1.664787
4.221191	1.664945
4.221680	1.664726
4.222168	1.665323
4.222656	1.665146
4.223145	1.665170
4.223633	1.665075
4.224121	1.665263
4.224609	1.665267
4.225098	1.665166
4.225586	1.665028
4.226074	1.664988
4.226562	1.665122
4.227051	1.665022
4.227539	1.665184
4.228027	1.665021
4.228516	1.665014
4.229004	1.664850
4.229492	1.665158
4.229980	1.665040
4.230469	1.664908
4.230957	1.664826
4.231445	1.665125
4.231934	1.665078
4.232422	1.665202
4.232910	1.665112
4.233398	1.664878
4.233887	1.665037
4.234375	1.665064
4.234863	1.665068
4.235352	1.664935
4.235840	1.664934
4.236328	1.664917
4.236816	1.665373
4.237305	1.664980
4.237793	1.665161
4.238281	1.665141
4.238770	1.665247
4.239258	1.665511
4.239746	1.664792
4.240234	1.664911
4.240723	1.664926
4.241211	1.665097
4.241699	1.665292
4.242187	1.665045
4.242676	1.665133
4.243164	1.665293
4.243652	1.665326
4.244141	1.665297
4.244629	1.664837
4.245117	1.665221
4.245605	1.665199
4.246094	1.665570
4.246582	1.665338
4.247070	1.665143
4.247559	1.665163
4.248047	1.665293
4.248535	1.665435
4.249023	1.665355
4.249512	1.665171
4.250000	1.665003
4.250488	1.665299
4.250977	1.665316
4.251465	1.665140
4.251953	1.665074
4.252441	1.665185
4.252930	1.665161
4.253418	1.665601
4.253906	1.665350
4.254395	1.665220
4.254883	1.665247
4.255371	1.665265
4.255859	1.665457
4.256348	1.664955
4.256836	1.665077
4.257324	1.665416
4.257812	1.665391
4.258301	1.665288
4.258789	1.665379
4.259277	1.665189
4.259766	1.665147
4.260254	1.665288
4.260742	1.665217
4.261230	1.665129
4.261719	1.664804
4.262207	1.665150
4.262695	1.665034
4.263184	1.665276
4.263672	1.664848
4.264160	1.665006
4.264648	1.665231
4.265137	1.665134
4.265625	1.665002
4.266113	1.664847
4.266602	1.664999
4.267090	1.664932
4.267578	1.665232
4.268066	1.664930
4.268555	1.664887
4.269043	1.664751
4.269531	1.664913
4.270020	1.664987
4.270508	1.664922
4.270996	1.664767
4.271484	1.664668
4.271973	1.664888
4.272461	1.665030
4.272949	1.664780
4.273437	1.664471
4.273926	1.664690
4.274414	1.664784
4.274902	1.664995
4.275391	1.664753
4.275879	1.664645
4.276367	1.664661
4.276855	1.664799
4.277344	1.664925
4.277832	1.664842
4.278320	1.664439
4.278809	1.664739
4.279297	1.664937
4.279785	1.664939
4.280273	1.665011
4.280762	1.664498
4.281250	1.664596
4.281738	1.665002
4.282227	1.664865
4.282715	1.664702
4.283203	1.664548
4.283691	1.664984
4.284180	1.664908
4.284668	1.664803
4.285156	1.664797
4.285645	1.664460
4.286133	1.664821
4.286621	1.664928
4.287109	1.664950
4.287598	1.664924
4.288086	1.664865
4.288574	1.664847
4.289062	1.664823
4.289551	1.665103
4.290039	1.664790
4.290527	1.664935
4.291016	1.665316
4.291504	1.665084
4.291992	1.665257
4.292480	1.664743
4.292969	1.664774
4.293457	1.665085
4.293945	1.665010
4.294434	1.665062
4.294922	1.665058
4.295410	1.665085
4.295898	1.665013
4.296387	1.665324
4.296875	1.665050
4.297363	1.665152
4.297852	1.665150
4.298340	1.665229
4.298828	1.665233
4.299316	1.665194
4.299805	1.664896
4.300293	1.664879
4.300781	1.665234
4.301270	1.665141
4.301758	1.665071
4.302246	1.665071
4.302734	1.665108
4.303223	1.665069
4.303711	1.665153
4.304199	1.665062
4.304687	1.665008
4.305176	1.665029
4.305664	1.665329
4.306152	1.665000
4.306641	1.664887
4.307129	1.665095
4.307617	1.665080
4.308105	1.665390
4.308594	1.665128
4.309082	1.665379
4.309570	1.665295
4.310059	1.664994
4.310547	1.665298
4.311035	1.665000
4.311523	1.665014
4.312012	1.664856
4.312500	1.665102
4.312988	1.665012
4.313477	1.665044
4.313965	1.664886
4.314453	1.664945
4.314941	1.665103
4.315430	1.665193
4.315918	1.665194
4.316406	1.664967
4.316895	1.665088
4.317383	1.665024
4.317871	1.665337
4.318359	1.665073
4.318848	1.665277
4.319336	1.665057
4.319824	1.665501
4.320312	1.665475
4.320801	1.665315
4.321289	1.665492
4.321777	1.664945
4.322266	1.665383
4.322754	1.665423
4.323242	1.665150
4.323730	1.665158
4.324219	1.665358
4.324707	1.665853
4.325195	1.665579
4.325684	1.665319
4.326172	1.665375
4.326660	1.665355
4.327148	1.665410
4.327637	1.665587
4.328125	1.665411
4.328613	1.664909
4.329102	1.665758
4.329590	1.665629
4.330078	1.665622
4.330566	1.665598
4.331055	1.665352
4.331543	1.665623
4.332031	1.665606
4.332520	1.665603
4.333008	1.665249
4.333496	1.665479
4.333984	1.665669
4.334473	1.665710
4.334961	1.665606
4.335449	1.665628
4.335937	1.665365
4.336426	1.665744
4.336914	1.665845
4.337402	1.665581
4.337891	1.665502
4.338379	1.665713
4.338867	1.665554
4.339355	1.665408
4.339844	1.665488
4.340332	1.665125
4.340820	1.665420
4.341309	1.665341
4.341797	1.665557
4.342285	1.665440
4.342773	1.665287
4.343262	1.665099
4.343750	1.665143
4.344238	1.665460
4.344727	1.665265
4.345215	1.665393
4.345703	1.665442
4.346191	1.665440
4.346680	1.665613
4.347168	1.665351
4.347656	1.665451
4.348145	1.665424
4.348633	1.665155
4.349121	1.665528
4.349609	1.665359
4.350098	1.665069
4.350586	1.665146
4.351074	1.665476
4.351562	1.665161
4.352051	1.665080
4.352539	1.665022
4.353027	1.664898
4.353516	1.665324
4.354004	1.665228
4.354492	1.664996
4.354980	1.665034
4.355469	1.665082
4.355957	1.665176
4.356445	1.665113
4.356934	1.665016
4.357422	1.665070
4.357910	1.665122
4.358398	1.665249
4.358887	1.665160
4.359375	1.665165
4.359863	1.665003
4.360352	1.665324
4.360840	1.665206
4.361328	1.664960
4.361816	1.665072
4.362305	1.665038
4.362793	1.665135
4.363281	1.665126
4.363770	1.664738
4.364258	1.664850
4.364746	1.664735
4.365234	1.664911
4.365723	1.664926
4.366211	1.664940
4.366699	1.664781
4.367187	1.664960
4.367676	1.664998
4.368164	1.665121
4.368652	1.664914
4.369141	1.664885
4.369629	1.664950
4.370117	1.665060
4.370605	1.665202
4.371094	1.665085
4.371582	1.664818
4.372070	1.665017
4.372559	1.665100
4.373047	1.665019
4.373535	1.664934
4.374023	1.664782
4.374512	1.664948
4.375000	1.665082
4.375488	1.664996
4.375977	1.665021
4.376465	1.664952
4.376953	1.664962
4.377441	1.665359
4.377930	1.665162
4.378418	1.664905
4.378906	1.664972
4.379395	1.665077
4.379883	1.665066
4.380371	1.665112
4.380859	1.664898
4.381348	1.664776
4.381836	1.665057
4.382324	1.665157
4.382812	1.665164
4.383301	1.665000
4.383789	1.665147
4.384277	1.665276
4.384766	1.665408
4.385254	1.665048
4.385742	1.664948
4.386230	1.665135
4.386719	1.665006
4.387207	1.665354
4.387695	1.665463
4.388184	1.665220
4.388672	1.665530
4.389160	1.665137
4.389648	1.665466
4.390137	1.665397
4.390625	1.665221
4.391113	1.665330
4.391602	1.665440
4.392090	1.665451
4.392578	1.665291
4.393066	1.665333
4.393555	1.665204
4.394043	1.665856
4.394531	1.665567
4.395020	1.665247
4.395508	1.665265
4.395996	1.665590
4.396484	1.665451
4.396973	1.665543
4.397461	1.665290
4.397949	1.665290
4.398437	1.665473
4.398926	1.665354
4.399414	1.665708
4.399902	1.665535
4.400391	1.665503
4.400879	1.665595
4.401367	1.665782
4.401855	1.665651
4.402344	1.665335
4.402832	1.665368
4.403320	1.665504
4.403809	1.665610
4.404297	1.665637
4.404785	1.665525
4.405273	1.665459
4.405762	1.665549
4.406250	1.665692
4.406738	1.665327
4.407227	1.665301
4.407715	1.665422
4.408203	1.665799
4.408691	1.665271
4.409180	1.665692
4.409668	1.665576
4.410156	1.665582
4.410645	1.665553
4.411133	1.665664
4.411621	1.665494
4.412109	1.665825
4.412598	1.665750
4.413086	1.665510
4.413574	1.665565
4.414062	1.665366
4.414551	1.665573
4.415039	1.665288
4.415527	1.665792
4.416016	1.665809
4.416504	1.665544
4.416992	1.665476
4.417480	1.665599
4.417969	1.665666
4.418457	1.665752
4.418945	1.665531
4.419434	1.665619
4.419922	1.665574
4.420410	1.665540
4.420898	1.665545
4.421387	1.665153
4.421875	1.665228
4.422363	1.665384
4.422852	1.665474
4.423340	1.665591
4.423828	1.665425
4.424316	1.665261
4.424805	1.665601
4.425293	1.665647
4.425781	1.665669
4.426270	1.665673
4.426758	1.665326
4.427246	1.665619
4.427734	1.665929
4.428223	1.665622
4.428711	1.665673
4.429199	1.665615
4.429687	1.665624
4.430176	1.665813
4.430664	1.665521
4.431152	1.665310
4.431641	1.665180
4.432129	1.665667
4.432617	1.665715
4.433105	1.665371
4.433594	1.665105
4.434082	1.665444
4.434570	1.665440
4.435059	1.665092
4.435547	1.665249
4.436035	1.664840
4.436523	1.665146
4.437012	1.665236
4.437500	1.665399
4.437988	1.665072
4.438477	1.665502
4.438965	1.665484
4.439453	1.665626
4.439941	1.665605
4.440430	1.665292
4.440918	1.665427
4.441406	1.665342
4.441895	1.665557
4.442383	1.665297
4.442871	1.665354
4.443359	1.664984
4.443848	1.665322
4.444336	1.665536
4.444824	1.665330
4.445312	1.665407
4.445801	1.665168
4.446289	1.665433
4.446777	1.665410
4.447266	1.665427
4.447754	1.665274
4.448242	1.664968
4.448730	1.665257
4.449219	1.665533
4.449707	1.665268
4.450195	1.665063
4.450684	1.664898
4.451172	1.665253
4.451660	1.665213
4.452148	1.665308
4.452637	1.665241
4.453125	1.665103
4.453613	1.665263
4.454102	1.665349
4.454590	1.665158
4.455078	1.664998
4.455566	1.664973
4.456055	1.665287
4.456543	1.665220
4.457031	1.665064
4.457520	1.664944
4.458008	1.665019
4.458496	1.665324
4.458984	1.665019
4.459473	1.664927
4.459961	1.664839
4.460449	1.664978
4.460937	1.664783
4.461426	1.665164
4.461914	1.664894
4.462402	1.665019
4.462891	1.665117
4.463379	1.664933
4.463867	1.665151
4.464355	1.664842
4.464844	1.664867
4.465332	1.665017
4.465820	1.665190
4.466309	1.665069
4.466797	1.665066
4.467285	1.664938
4.467773	1.665184
4.468262	1.665160
4.468750	1.665188
4.469238	1.665287
4.469727	1.665030
4.470215	1.665107
4.470703	1.665670
4.471191	1.665377
4.471680	1.665091
4.472168	1.665100
4.472656	1.665230
4.473145	1.665277
4.473633	1.665223
4.474121	1.665168
4.474609	1.665145
4.475098	1.665296
4.475586	1.665300
4.476074	1.665595
4.476562	1.665114
4.477051	1.665155
4.477539	1.665353
4.478027	1.665503
4.478516	1.665327
4.479004	1.665147
4.479492	1.665413
4.479980	1.665442
4.480469	1.665465
4.480957	1.665390
4.481445	1.665363
4.481934	1.665300
4.482422	1.665590
4.482910	1.665610
4.483398	1.665499
4.483887	1.665355
4.484375	1.665523
4.484863	1.665523
4.485352	1.665526
4.485840	1.665438
4.486328	1.665430
4.486816	1.665491
4.487305	1.665578
4.487793	1.665645
4.488281	1.665283
4.488770	1.665327
4.489258	1.665498
4.489746	1.665409
4.490234	1.665460
4.490723	1.665257
4.491211	1.665150
4.491699	1.665457
4.492187	1.665398
4.492676	1.665770
4.493164	1.665235
4.493652	1.665040
4.494141	1.665500
4.494629	1.665380
4.495117	1.665371
4.495605	1.665316
4.496094	1.665377
4.496582	1.665326
4.497070	1.665567
4.497559	1.665470
4.498047	1.664903
4.498535	1.665225
4.499023	1.665294
4.499512	1.665412
4.500000	1.665206
4.500488	1.665026
4.500977	1.665457
4.501465	1.665185
4.501953	1.665357
4.502441	1.665177
4.502930	1.664945
4.503418	1.665145
4.503906	1.665365
4.504395	1.665349
4.504883	1.665180
4.505371	1.665163
4.505859	1.665366
4.506348	1.665368
4.506836	1.665318
4.507324	1.665607
4.507812	1.665235
4.508301	1.665435
4.508789	1.665409
4.509277	1.665595
4.509766	1.665236
4.510254	1.665362
4.510742	1.665346
4.511230	1.665431
4.511719	1.665537
4.512207	1.665410
4.512695	1.665249
4.513184	1.665364
4.513672	1.665650
4.514160	1.665448
4.514648	1.665527
4.515137	1.665213
4.515625	1.665472
4.516113	1.665416
4.516602	1.665610
4.517090	1.665192
4.517578	1.665307
4.518066	1.665332
4.518555	1.665594
4.519043	1.665365
4.519531	1.665349
4.520020	1.665509
4.520508	1.665597
4.520996	1.665564
4.521484	1.665374
4.521973	1.665406
4.522461	1.665476
4.522949	1.665321
4.523437	1.665763
4.523926	1.665388
4.524414	1.665368
4.524902	1.665713
4.525391	1.665055
4.525879	1.665537
4.526367	1.665213
4.526855	1.665182
4.527344	1.665333
4.527832	1.665609
4.528320	1.665564
4.528809	1.665479
4.529297	1.665370
4.529785	1.665446
4.530273	1.665367
4.530762	1.665692
4.531250	1.665376
4.531738	1.665553
4.532227	1.665565
4.532715	1.665712
4.533203	1.665625
4.533691	1.665185
4.534180	1.665416
4.534668	1.665290
4.535156	1.665584
4.535645	1.665295
4.536133	1.665412
4.536621	1.665236
4.537109	1.665587
4.537598	1.665533
4.538086	1.665537
4.538574	1.665360
4.539062	1.664953
4.539551	1.665329
4.540039	1.665394
4.540527	1.665205
4.541016	1.665144
4.541504	1.664916
4.541992	1.665351
4.542480	1.665074
4.542969	1.664964
4.543457	1.664894
4.543945	1.664815
4.544434	1.664879
4.544922	1.665152
4.545410	1.665169
4.545898	1.664914
4.546387	1.664973
4.546875	1.665219
4.547363	1.665169
4.547852	1.665230
4.548340	1.665124
4.548828	1.665223
4.549316	1.665276
4.549805	1.665290
4.550293	1.665352
4.550781	1.665029
4.551270	1.665114
4.551758	1.665145
4.552246	1.665079
4.552734	1.665150
4.553223	1.664728
4.553711	1.665249
4.554199	1.665210
4.554687	1.664834
4.555176	1.665016
4.555664	1.664783
4.556152	1.664825
4.556641	1.665113
4.557129	1.665244
4.557617	1.664938
4.558105	1.665118
4.558594	1.665189
4.559082	1.665089
4.559570	1.665123
4.560059	1.664944
4.560547	1.665022
4.561035	1.664977
4.561523	1.665083
4.562012	1.665365
4.562500	1.664991
4.562988	1.665251
4.563477	1.665074
4.563965	1.665268
4.564453	1.665057
4.564941	1.665086
4.565430	1.664927
4.565918	1.665100
4.566406	1.665225
4.566895	1.665139
4.567383	1.665158
4.567871	1.664985
4.568359	1.665366
4.568848	1.665117
4.569336	1.665100
4.569824	1.664908
4.570312	1.664960
4.570801	1.665128
4.571289	1.665035
4.571777	1.665014
4.572266	1.664839
4.572754	1.665016
4.573242	1.665185
4.573730	1.665120
4.574219	1.665027
4.574707	1.665263
4.575195	1.665275
4.575684	1.665485
4.576172	1.665211
4.576660	1.665329
4.577148	1.664966
4.577637	1.665047
4.578125	1.665490
4.578613	1.665180
4.579102	1.665255
4.579590	1.665238
4.580078	1.665359
4.580566	1.665443
4.581055	1.665443
4.581543	1.665144
4.582031	1.664933
4.582520	1.665260
4.583008	1.665222
4.583496	1.665188
4.583984	1.665050
4.584473	1.665191
4.584961	1.665312
4.585449	1.665199
4.585937	1.665220
4.586426	1.665183
4.586914	1.665085
4.587402	1.665457
4.587891	1.665402
4.588379	1.665620
4.588867	1.665206
4.589355	1.665392
4.589844	1.665390
4.590332	1.665770
4.590820	1.665582
4.591309	1.665549
4.591797	1.665388
4.592285	1.665619
4.592773	1.665437
4.593262	1.665551
4.593750	1.665283
4.594238	1.665143
4.594727	1.665377
4.595215	1.665493
4.595703	1.665148
4.596191	1.665096
4.596680	1.665292
4.597168	1.665365
4.597656	1.665692
4.598145	1.665349
4.598633	1.665103
4.599121	1.665270
4.599609	1.665120
4.600098	1.665553
4.600586	1.665297
4.601074	1.665293
4.601562	1.665483
4.602051	1.665437
4.602539	1.665452
4.603027	1.665362
4.603516	1.665304
4.604004	1.665310
4.604492	1.665234
4.604980	1.665246
4.605469	1.665122
4.605957	1.665098
4.606445	1.665189
4.606934	1.664919
4.607422	1.665338
4.607910	1.665189
4.608398	1.665153
4.608887	1.665109
4.609375	1.665255
4.609863	1.665020
4.610352	1.665243
4.610840	1.665294
4.611328	1.664978
4.611816	1.665363
4.612305	1.665074
4.612793	1.665249
4.613281	1.665095
4.613770	1.665221
4.614258	1.665382
4.614746	1.665157
4.615234	1.665188
4.615723	1.665084
4.616211	1.665313
4.616699	1.665168
4.617187	1.665089
4.617676	1.665300
4.618164	1.665185
4.618652	1.665419
4.619141	1.665388
4.619629	1.664988
4.620117	1.665032
4.620605	1.664994
4.621094	1.665177
4.621582	1.665174
4.622070	1.665121
4.622559	1.664916
4.623047	1.665203
4.623535	1.665147
4.624023	1.665344
4.624512	1.665241
4.625000	1.664968
4.625488	1.665092
4.625977	1.665124
4.626465	1.665355
4.626953	1.665091
4.627441	1.665077
4.627930	1.665130
4.628418	1.665404
4.628906	1.665350
4.629395	1.665121
4.629883	1.665247
4.630371	1.665329
4.630859	1.665260
4.631348	1.665656
4.631836	1.665204
4.632324	1.665340
4.632812	1.665385
4.633301	1.665387
4.633789	1.665166
4.634277	1.665178
4.634766	1.665005
4.635254	1.665185
4.635742	1.665151
4.636230	1.665133
4.636719	1.665002
4.637207	1.665060
4.637695	1.665041
4.638184	1.665326
4.638672	1.665051
4.639160	1.665041
4.639648	1.664970
4.640137	1.665196
4.640625	1.665132
4.641113	1.665134
4.641602	1.665125
4.642090	1.665118
4.642578	1.665443
4.643066	1.665146
4.643555	1.665257
4.644043	1.664881
4.644531	1.665232
4.645020	1.665362
4.645508	1.665387
4.645996	1.665056
4.646484	1.665140
4.646973	1.665132
4.647461	1.665575
4.647949	1.665359
4.648437	1.665286
4.648926	1.665362
4.649414	1.665349
4.649902	1.665346
4.650391	1.665392
4.650879	1.665191
4.651367	1.665199
4.651855	1.665152
4.652344	1.665481
4.652832	1.665449
4.653320	1.665073
4.653809	1.665045
4.654297	1.665524
4.654785	1.665496
4.655273	1.665371
4.655762	1.665234
4.656250	1.665356
4.656738	1.665534
4.657227	1.665564
4.657715	1.665709
4.658203	1.665203
4.658691	1.665653
4.659180	1.665805
4.659668	1.665823
4.660156	1.665572
4.660645	1.665564
4.661133	1.665334
4.661621	1.665855
4.662109	1.665748
4.662598	1.665301
4.663086	1.665371
4.663574	1.665224
4.664062	1.665521
4.664551	1.665460
4.665039	1.665540
4.665527	1.665463
4.666016	1.665431
4.666504	1.665680
4.666992	1.665731
4.667480	1.665625
4.667969	1.665455
4.668457	1.665407
4.668945	1.665742
4.669434	1.665646
4.669922	1.665786
4.670410	1.665470
4.670898	1.665672
4.671387	1.665630
4.671875	1.665695
4.672363	1.665546
4.672852	1.665235
4.673340	1.665683
4.673828	1.665590
4.674316	1.665525
4.674805	1.665245
4.675293	1.665470
4.675781	1.665366
4.676270	1.665932
4.676758	1.665620
4.677246	1.665374
4.677734	1.665196
4.678223	1.665579
4.678711	1.665550
4.679199	1.665382
4.679687	1.664928
4.680176	1.665210
4.680664	1.665255
4.681152	1.665279
4.681641	1.665183
4.682129	1.665011
4.682617	1.665133
4.683105	1.665301
4.683594	1.665324
4.684082	1.665265
4.684570	1.665196
4.685059	1.665247
4.685547	1.665343
4.686035	1.665471
4.686523	1.665064
4.687012	1.665280
4.687500	1.665146
4.687988	1.665459
4.688477	1.665440
4.688965	1.665188
4.689453	1.664943
4.689941	1.665146
4.690430	1.665307
4.690918	1.664807
4.691406	1.664953
4.691895	1.665147
4.692383	1.665283
4.692871	1.665354
4.693359	1.665233
4.693848	1.665416
4.694336	1.664985
4.694824	1.665189
4.695312	1.665149
4.695801	1.665086
4.696289	1.665087
4.696777	1.664898
4.697266	1.665103
4.697754	1.665270
4.698242	1.665327
4.698730	1.665027
4.699219	1.665154
4.699707	1.665163
4.700195	1.665169
4.700684	1.665090
4.701172	1.664795
4.701660	1.664853
4.702148	1.665024
4.702637	1.664935
4.703125	1.664757
4.703613	1.664743
4.704102	1.664753
4.704590	1.665034
4.705078	1.664909
4.705566	1.665246
4.706055	1.664670
4.706543	1.664615
4.707031	1.665003
4.707520	1.664842
4.708008	1.665034
4.708496	1.664822
4.708984	1.664765
4.709473	1.665178
4.709961	1.664998
4.710449	1.664986
4.710937	1.664653
4.711426	1.664809
4.711914	1.665063
4.712402	1.665070
4.712891	1.664995
4.713379	1.664954
4.713867	1.664836
4.714355	1.664980
4.714844	1.664984
4.715332	1.664838
4.715820	1.664923
4.716309	1.664847
4.716797	1.665019
4.717285	1.664790
4.717773	1.664585
4.718262	1.664714
4.718750	1.664848
4.719238	1.664928
4.719727	1.665024
4.720215	1.664702
4.720703	1.664911
4.721191	1.665077
4.721680	1.664709
4.722168	1.664732
4.722656	1.664505
4.723145	1.664597
4.723633	1.664973
4.724121	1.664945
4.724609	1.665018
4.725098	1.664809
4.725586	1.664907
4.726074	1.664994
4.726562	1.665067
4.727051	1.665247
4.727539	1.664562
4.728027	1.664968
4.728516	1.665294
4.729004	1.665274
4.729492	1.664831
4.729980	1.665105
4.730469	1.665104
4.730957	1.665328
4.731445	1.665031
4.731934	1.664923
4.732422	1.664936
4.732910	1.664829
4.733398	1.665124
4.733887	1.665055
4.734375	1.664982
4.734863	1.664732
4.735352	1.665127
4.735840	1.665434
4.736328	1.665240
4.736816	1.665080
4.737305	1.665088
4.737793	1.665338
4.738281	1.665561
4.738770	1.665295
4.739258	1.664986
4.739746	1.665128
4.740234	1.665109
4.740723	1.665470
4.741211	1.665125
4.741699	1.665278
4.742187	1.664852
4.742676	1.665337
4.743164	1.665408
4.743652	1.665338
4.744141	1.665121
4.744629	1.665229
4.745117	1.665078
4.745605	1.665126
4.746094	1.665154
4.746582	1.664807
4.747070	1.665003
4.747559	1.665165
4.748047	1.665322
4.748535	1.665219
4.749023	1.664888
4.749512	1.665020
4.750000	1.665451
4.750488	1.665348
4.750977	1.665338
4.751465	1.665157
4.751953	1.665131
4.752441	1.665277
4.752930	1.665210
4.753418	1.665293
4.753906	1.664899
4.754395	1.665150
4.754883	1.665527
4.755371	1.665254
4.755859	1.665329
4.756348	1.664948
4.756836	1.665085
4.757324	1.665237
4.757812	1.665255
4.758301	1.665015
4.758789	1.665000
4.759277	1.664729
4.759766	1.665035
4.760254	1.665069
4.760742	1.664990
4.761230	1.664726
4.761719	1.664775
4.762207	1.665206
4.762695	1.664850
4.763184	1.664620
4.763672	1.664980
4.764160	1.664973
4.764648	1.665120
4.765137	1.665030
4.765625	1.665074
4.766113	1.665152
4.766602	1.665213
4.767090	1.665299
4.767578	1.665189
4.768066	1.665056
4.768555	1.665034
4.769043	1.665292
4.769531	1.665160
4.770020	1.665021
4.770508	1.664989
4.770996	1.664735
4.771484	1.664939
4.771973	1.664785
4.772461	1.664555
4.772949	1.664743
4.773437	1.664473
4.773926	1.665013
4.774414	1.664783
4.774902	1.664536
4.775391	1.664721
4.775879	1.664812
4.776367	1.664771
4.776855	1.664890
4.777344	1.664932
4.777832	1.664986
4.778320	1.664897
4.778809	1.665151
4.779297	1.665027
4.779785	1.664842
4.780273	1.664720
4.780762	1.665060
4.781250	1.665187
4.781738	1.664933
4.782227	1.665110
4.782715	1.664817
4.783203	1.664973
4.783691	1.664846
4.784180	1.664959
4.784668	1.664707
4.785156	1.664564
4.785645	1.664649
4.786133	1.664902
4.786621	1.664671
4.787109	1.664721
4.787598	1.664759
4.788086	1.664975
4.788574	1.664970
4.789062	1.664874
4.789551	1.664815
4.790039	1.664613
4.790527	1.664884
4.791016	1.664899
4.791504	1.664888
4.791992	1.664621
4.792480	1.664923
4.792969	1.664603
4.793457	1.664909
4.793945	1.664889
4.794434	1.664873
4.794922	1.664561
4.795410	1.664886
4.795898	1.664988
4.796387	1.664884
4.796875	1.664964
4.797363	1.664769
4.797852	1.665014
4.798340	1.665014
4.798828	1.664742
4.799316	1.664604
4.799805	1.664648
4.800293	1.665024
4.800781	1.665008
4.801270	1.664794
4.801758	1.664571
4.802246	1.664955
4.802734	1.664950
4.803223	1.664788
4.803711	1.664637
4.804199	1.664706
4.804687	1.664884
4.805176	1.664892
4.805664	1.664936
4.806152	1.664907
4.806641	1.664760
4.807129	1.664811
4.807617	1.665185
4.808105	1.664990
4.808594	1.664866
4.809082	1.664692
4.809570	1.664685
4.810059	1.665070
4.810547	1.664832
4.811035	1.664679
4.811523	1.664613
4.812012	1.664845
4.812500	1.665006
4.812988	1.665052
4.813477	1.664801
4.813965	1.664671
4.814453	1.664782
4.814941	1.664889
4.815430	1.665024
4.815918	1.664684
4.816406	1.664741
4.816895	1.665047
4.817383	1.665001
4.817871	1.665163
4.818359	1.664947
4.818848	1.664994
4.819336	1.665055
4.819824	1.665016
4.820312	1.665038
4.820801	1.664938
4.821289	1.664867
4.821777	1.665127
4.822266	1.665052
4.822754	1.664972
4.823242	1.664953
4.823730	1.665000
4.824219	1.665265
4.824707	1.665013
4.825195	1.665080
4.825684	1.664756
4.826172	1.664906
4.826660	1.664978
4.827148	1.665173
4.827637	1.664887
4.828125	1.664931
4.828613	1.664731
4.829102	1.665013
4.829590	1.665077
4.830078	1.664830
4.830566	1.665148
4.831055	1.665040
4.831543	1.665363
4.832031	1.665111
4.832520	1.665160
4.833008	1.664988
4.833496	1.664839
4.833984	1.665232
4.834473	1.665240
4.834961	1.665085
4.835449	1.664773
4.835937	1.665179
4.836426	1.665075
4.836914	1.665390
4.837402	1.665080
4.837891	1.665060
4.838379	1.665143
4.838867	1.664994
4.839355	1.665171
4.839844	1.665018
4.840332	1.664961
4.840820	1.665088
4.841309	1.665182
4.841797	1.664962
4.842285	1.664981
4.842773	1.664966
4.843262	1.665282
4.843750	1.665521
4.844238	1.664979
4.844727	1.665075
4.845215	1.664974
4.845703	1.665114
4.846191	1.665208
4.846680	1.665243
4.847168	1.665077
4.847656	1.665122
4.848145	1.665532
4.848633	1.665544
4.849121	1.665147
4.849609	1.665212
4.850098	1.665268
4.850586	1.665548
4.851074	1.665335
4.851562	1.665038
4.852051	1.665231
4.852539	1.665169
4.853027	1.665044
4.853516	1.665498
4.854004	1.665177
4.854492	1.665319
4.854980	1.665143
4.855469	1.665191
4.855957	1.665197
4.856445	1.665182
4.856934	1.664995
4.857422	1.665191
4.857910	1.665416
4.858398	1.665426
4.858887	1.665158
4.859375	1.665094
4.859863	1.665424
4.860352	1.665468
4.860840	1.665568
4.861328	1.665086
4.861816	1.665119
4.862305	1.665149
4.862793	1.665234
4.863281	1.665060
4.863770	1.664952
4.864258	1.665247
4.864746	1.665240
4.865234	1.665324
4.865723	1.665155
4.866211	1.665222
4.866699	1.664937
4.867187	1.665196
4.867676	1.665268
4.868164	1.665225
4.868652	1.664886
4.869141	1.664994
4.869629	1.665132
4.870117	1.665188
4.870605	1.664856
4.871094	1.665072
4.871582	1.664708
4.872070	1.665028
4.872559	1.665299
4.873047	1.664900
4.873535	1.664975
4.874023	1.665060
4.874512	1.665245
4.875000	1.665338
4.875488	1.665532
4.875977	1.664936
4.876465	1.665170
4.876953	1.665274
4.877441	1.665418
4.877930	1.665220
4.878418	1.665147
4.878906	1.664914
4.879395	1.665287
4.879883	1.665108
4.880371	1.665071
4.880859	1.665036
4.881348	1.665020
4.881836	1.665362
4.882324	1.665172

