LabVIEW Measurement	
Writer_Version	2
Reader_Version	2
Separator	Tab
Decimal_Separator	.
Multi_Headings	Yes
X_Columns	One
Time_Pref	Absolute
Operator	W-Tunnel
Date	2024/05/15
Time	15:43:47.0002361812495430154
***End_of_Header***	
	
Channels	1	
Samples	10000	
Date	2024/05/15	
Time	15:47:15.8463867812496226777	
Y_Unit_Label	Volts	
X_Dimension	Time	
X0	0.0000000000000000E+0	
Delta_X	0.000488	
***End_of_Header***		
X_Value	Voltage	Comment
0.000000	1.614520
0.000488	1.614654
0.000977	1.614414
0.001465	1.614477
0.001953	1.614325
0.002441	1.614294
0.002930	1.614576
0.003418	1.614007
0.003906	1.614258
0.004395	1.614306
0.004883	1.614542
0.005371	1.614292
0.005859	1.614693
0.006348	1.614280
0.006836	1.614408
0.007324	1.614519
0.007812	1.614525
0.008301	1.614503
0.008789	1.614481
0.009277	1.614546
0.009766	1.614391
0.010254	1.614539
0.010742	1.614419
0.011230	1.614481
0.011719	1.614439
0.012207	1.614646
0.012695	1.614491
0.013184	1.614441
0.013672	1.614359
0.014160	1.614479
0.014648	1.614477
0.015137	1.614569
0.015625	1.614360
0.016113	1.614259
0.016602	1.614356
0.017090	1.614182
0.017578	1.614669
0.018066	1.614419
0.018555	1.614278
0.019043	1.614316
0.019531	1.614445
0.020020	1.614561
0.020508	1.614252
0.020996	1.614218
0.021484	1.614461
0.021973	1.614262
0.022461	1.614373
0.022949	1.614459
0.023437	1.614235
0.023926	1.614358
0.024414	1.614116
0.024902	1.614360
0.025391	1.614582
0.025879	1.614496
0.026367	1.614485
0.026855	1.614376
0.027344	1.614436
0.027832	1.614189
0.028320	1.614350
0.028809	1.614571
0.029297	1.614499
0.029785	1.614365
0.030273	1.614479
0.030762	1.614402
0.031250	1.614644
0.031738	1.614614
0.032227	1.614357
0.032715	1.614572
0.033203	1.613986
0.033691	1.614267
0.034180	1.614358
0.034668	1.614238
0.035156	1.614420
0.035645	1.614296
0.036133	1.614791
0.036621	1.614430
0.037109	1.614426
0.037598	1.614572
0.038086	1.614541
0.038574	1.614436
0.039062	1.614496
0.039551	1.614448
0.040039	1.614589
0.040527	1.614786
0.041016	1.614671
0.041504	1.614730
0.041992	1.614563
0.042480	1.614685
0.042969	1.614659
0.043457	1.614622
0.043945	1.614729
0.044434	1.614650
0.044922	1.614804
0.045410	1.614725
0.045898	1.614773
0.046387	1.614793
0.046875	1.614906
0.047363	1.614711
0.047852	1.614903
0.048340	1.615011
0.048828	1.614522
0.049316	1.614941
0.049805	1.614724
0.050293	1.614765
0.050781	1.614791
0.051270	1.614895
0.051758	1.614895
0.052246	1.614835
0.052734	1.615082
0.053223	1.614494
0.053711	1.614506
0.054199	1.614597
0.054687	1.614748
0.055176	1.614569
0.055664	1.614765
0.056152	1.614675
0.056641	1.614671
0.057129	1.614795
0.057617	1.614840
0.058105	1.614654
0.058594	1.614702
0.059082	1.614743
0.059570	1.614773
0.060059	1.614798
0.060547	1.614965
0.061035	1.614835
0.061523	1.614772
0.062012	1.614822
0.062500	1.614970
0.062988	1.614829
0.063477	1.614792
0.063965	1.614922
0.064453	1.614776
0.064941	1.614750
0.065430	1.614851
0.065918	1.614777
0.066406	1.615021
0.066895	1.614770
0.067383	1.614813
0.067871	1.614718
0.068359	1.614717
0.068848	1.614921
0.069336	1.614743
0.069824	1.614783
0.070312	1.614798
0.070801	1.614770
0.071289	1.614860
0.071777	1.614445
0.072266	1.614803
0.072754	1.614906
0.073242	1.614745
0.073730	1.614690
0.074219	1.614795
0.074707	1.614932
0.075195	1.615061
0.075684	1.614838
0.076172	1.614743
0.076660	1.614763
0.077148	1.614853
0.077637	1.614887
0.078125	1.614954
0.078613	1.614835
0.079102	1.614758
0.079590	1.614842
0.080078	1.614838
0.080566	1.615007
0.081055	1.614912
0.081543	1.614803
0.082031	1.614700
0.082520	1.614854
0.083008	1.614771
0.083496	1.614959
0.083984	1.614903
0.084473	1.615023
0.084961	1.614864
0.085449	1.614969
0.085937	1.614572
0.086426	1.614810
0.086914	1.614967
0.087402	1.614741
0.087891	1.614881
0.088379	1.614709
0.088867	1.614943
0.089355	1.614838
0.089844	1.614887
0.090332	1.614921
0.090820	1.614868
0.091309	1.614779
0.091797	1.614880
0.092285	1.614758
0.092773	1.614865
0.093262	1.614772
0.093750	1.614597
0.094238	1.614809
0.094727	1.614730
0.095215	1.614840
0.095703	1.614572
0.096191	1.614630
0.096680	1.614471
0.097168	1.614530
0.097656	1.614526
0.098145	1.614444
0.098633	1.614702
0.099121	1.614316
0.099609	1.614658
0.100098	1.614744
0.100586	1.614730
0.101074	1.614671
0.101562	1.614740
0.102051	1.614640
0.102539	1.614540
0.103027	1.614409
0.103516	1.614561
0.104004	1.614586
0.104492	1.614588
0.104980	1.614377
0.105469	1.614531
0.105957	1.614580
0.106445	1.614653
0.106934	1.614649
0.107422	1.614530
0.107910	1.614666
0.108398	1.614422
0.108887	1.614813
0.109375	1.614617
0.109863	1.614924
0.110352	1.614844
0.110840	1.614854
0.111328	1.614632
0.111816	1.614721
0.112305	1.614645
0.112793	1.614466
0.113281	1.614826
0.113770	1.614661
0.114258	1.614622
0.114746	1.614749
0.115234	1.614372
0.115723	1.614665
0.116211	1.614496
0.116699	1.614344
0.117187	1.614414
0.117676	1.614583
0.118164	1.614472
0.118652	1.614513
0.119141	1.614599
0.119629	1.614497
0.120117	1.614500
0.120605	1.614481
0.121094	1.614780
0.121582	1.614654
0.122070	1.614511
0.122559	1.614523
0.123047	1.614450
0.123535	1.614689
0.124023	1.614644
0.124512	1.614861
0.125000	1.614640
0.125488	1.614318
0.125977	1.614642
0.126465	1.614491
0.126953	1.614660
0.127441	1.614749
0.127930	1.614675
0.128418	1.614573
0.128906	1.614580
0.129395	1.614474
0.129883	1.615049
0.130371	1.614688
0.130859	1.614738
0.131348	1.614702
0.131836	1.614890
0.132324	1.614596
0.132812	1.614960
0.133301	1.614550
0.133789	1.614415
0.134277	1.614690
0.134766	1.614745
0.135254	1.614734
0.135742	1.614748
0.136230	1.614896
0.136719	1.614713
0.137207	1.614914
0.137695	1.614760
0.138184	1.614884
0.138672	1.614973
0.139160	1.614835
0.139648	1.615076
0.140137	1.614959
0.140625	1.614697
0.141113	1.614806
0.141602	1.614929
0.142090	1.614835
0.142578	1.614842
0.143066	1.614827
0.143555	1.614718
0.144043	1.614799
0.144531	1.614552
0.145020	1.614903
0.145508	1.614558
0.145996	1.614820
0.146484	1.615029
0.146973	1.614981
0.147461	1.614851
0.147949	1.614953
0.148437	1.614991
0.148926	1.614502
0.149414	1.614732
0.149902	1.614989
0.150391	1.615079
0.150879	1.614979
0.151367	1.614907
0.151855	1.614967
0.152344	1.614882
0.152832	1.614932
0.153320	1.615141
0.153809	1.614957
0.154297	1.614994
0.154785	1.614774
0.155273	1.614912
0.155762	1.614977
0.156250	1.615165
0.156738	1.614942
0.157227	1.615009
0.157715	1.615084
0.158203	1.614966
0.158691	1.615185
0.159180	1.614984
0.159668	1.614962
0.160156	1.615022
0.160645	1.614970
0.161133	1.614986
0.161621	1.615001
0.162109	1.614940
0.162598	1.615246
0.163086	1.615070
0.163574	1.614834
0.164062	1.614947
0.164551	1.614757
0.165039	1.615190
0.165527	1.614962
0.166016	1.614912
0.166504	1.614766
0.166992	1.615025
0.167480	1.614951
0.167969	1.615025
0.168457	1.614964
0.168945	1.614815
0.169434	1.615112
0.169922	1.614751
0.170410	1.615063
0.170898	1.614868
0.171387	1.614807
0.171875	1.615033
0.172363	1.614887
0.172852	1.615468
0.173340	1.615133
0.173828	1.614895
0.174316	1.615109
0.174805	1.614693
0.175293	1.614892
0.175781	1.615045
0.176270	1.615025
0.176758	1.615003
0.177246	1.614907
0.177734	1.614990
0.178223	1.614949
0.178711	1.615085
0.179199	1.615082
0.179687	1.615211
0.180176	1.615074
0.180664	1.615009
0.181152	1.615003
0.181641	1.615218
0.182129	1.615053
0.182617	1.614965
0.183105	1.615072
0.183594	1.614998
0.184082	1.615117
0.184570	1.614992
0.185059	1.615073
0.185547	1.614950
0.186035	1.614976
0.186523	1.614832
0.187012	1.614898
0.187500	1.614808
0.187988	1.614992
0.188477	1.614997
0.188965	1.614910
0.189453	1.614864
0.189941	1.614979
0.190430	1.615009
0.190918	1.614835
0.191406	1.614987
0.191895	1.614938
0.192383	1.614719
0.192871	1.615109
0.193359	1.614965
0.193848	1.614822
0.194336	1.614650
0.194824	1.614746
0.195312	1.614510
0.195801	1.615002
0.196289	1.614780
0.196777	1.614748
0.197266	1.614462
0.197754	1.614541
0.198242	1.614514
0.198730	1.614519
0.199219	1.614503
0.199707	1.614472
0.200195	1.614571
0.200684	1.614584
0.201172	1.614604
0.201660	1.614320
0.202148	1.614842
0.202637	1.614518
0.203125	1.614234
0.203613	1.614434
0.204102	1.614122
0.204590	1.614401
0.205078	1.614205
0.205566	1.614622
0.206055	1.614615
0.206543	1.614309
0.207031	1.614339
0.207520	1.614317
0.208008	1.614329
0.208496	1.614455
0.208984	1.614297
0.209473	1.614251
0.209961	1.614437
0.210449	1.614520
0.210937	1.614469
0.211426	1.614383
0.211914	1.614348
0.212402	1.614503
0.212891	1.614386
0.213379	1.614365
0.213867	1.614417
0.214355	1.614511
0.214844	1.614042
0.215332	1.614409
0.215820	1.614251
0.216309	1.614472
0.216797	1.614282
0.217285	1.614468
0.217773	1.614291
0.218262	1.614452
0.218750	1.614347
0.219238	1.614433
0.219727	1.614560
0.220215	1.614560
0.220703	1.614371
0.221191	1.614489
0.221680	1.614507
0.222168	1.614529
0.222656	1.614505
0.223145	1.614524
0.223633	1.614323
0.224121	1.614352
0.224609	1.614411
0.225098	1.614496
0.225586	1.614485
0.226074	1.614610
0.226562	1.614571
0.227051	1.614428
0.227539	1.614546
0.228027	1.614602
0.228516	1.614621
0.229004	1.614592
0.229492	1.614176
0.229980	1.614530
0.230469	1.614403
0.230957	1.614528
0.231445	1.614827
0.231934	1.614494
0.232422	1.614621
0.232910	1.614530
0.233398	1.614559
0.233887	1.614500
0.234375	1.614257
0.234863	1.614675
0.235352	1.614588
0.235840	1.614563
0.236328	1.614679
0.236816	1.614763
0.237305	1.614546
0.237793	1.614768
0.238281	1.614669
0.238770	1.614660
0.239258	1.614600
0.239746	1.614718
0.240234	1.614896
0.240723	1.614652
0.241211	1.614834
0.241699	1.614597
0.242187	1.615002
0.242676	1.614865
0.243164	1.614624
0.243652	1.614596
0.244141	1.614704
0.244629	1.614846
0.245117	1.614887
0.245605	1.614802
0.246094	1.614881
0.246582	1.614583
0.247070	1.614527
0.247559	1.614525
0.248047	1.614730
0.248535	1.614755
0.249023	1.614658
0.249512	1.614760
0.250000	1.614737
0.250488	1.614653
0.250977	1.614640
0.251465	1.614783
0.251953	1.614798
0.252441	1.614469
0.252930	1.614799
0.253418	1.614656
0.253906	1.614668
0.254395	1.614796
0.254883	1.614858
0.255371	1.614707
0.255859	1.614392
0.256348	1.614571
0.256836	1.614480
0.257324	1.614701
0.257812	1.614497
0.258301	1.614523
0.258789	1.614622
0.259277	1.614760
0.259766	1.614706
0.260254	1.614680
0.260742	1.614833
0.261230	1.614840
0.261719	1.614700
0.262207	1.614686
0.262695	1.614790
0.263184	1.614611
0.263672	1.614491
0.264160	1.614803
0.264648	1.614568
0.265137	1.614527
0.265625	1.614749
0.266113	1.614664
0.266602	1.614647
0.267090	1.614564
0.267578	1.614449
0.268066	1.614392
0.268555	1.614687
0.269043	1.614622
0.269531	1.614514
0.270020	1.614591
0.270508	1.614602
0.270996	1.614548
0.271484	1.614949
0.271973	1.614764
0.272461	1.614665
0.272949	1.614650
0.273437	1.614362
0.273926	1.614555
0.274414	1.614693
0.274902	1.614674
0.275391	1.614669
0.275879	1.614843
0.276367	1.614824
0.276855	1.614816
0.277344	1.614775
0.277832	1.615042
0.278320	1.614899
0.278809	1.614814
0.279297	1.614793
0.279785	1.614984
0.280273	1.614760
0.280762	1.614892
0.281250	1.614713
0.281738	1.614412
0.282227	1.614762
0.282715	1.614698
0.283203	1.615056
0.283691	1.614742
0.284180	1.614585
0.284668	1.614791
0.285156	1.614507
0.285645	1.614701
0.286133	1.614691
0.286621	1.614761
0.287109	1.614575
0.287598	1.614890
0.288086	1.614719
0.288574	1.614970
0.289062	1.614757
0.289551	1.614881
0.290039	1.614854
0.290527	1.615004
0.291016	1.614645
0.291504	1.614960
0.291992	1.614752
0.292480	1.614884
0.292969	1.614664
0.293457	1.614581
0.293945	1.614665
0.294434	1.614674
0.294922	1.614804
0.295410	1.614568
0.295898	1.614644
0.296387	1.614513
0.296875	1.614582
0.297363	1.614660
0.297852	1.614802
0.298340	1.614719
0.298828	1.614801
0.299316	1.614490
0.299805	1.614672
0.300293	1.614799
0.300781	1.614333
0.301270	1.614607
0.301758	1.614508
0.302246	1.614526
0.302734	1.614285
0.303223	1.614658
0.303711	1.614563
0.304199	1.614635
0.304687	1.614575
0.305176	1.614545
0.305664	1.614377
0.306152	1.614704
0.306641	1.614499
0.307129	1.614457
0.307617	1.614579
0.308105	1.614660
0.308594	1.614358
0.309082	1.614451
0.309570	1.614506
0.310059	1.614662
0.310547	1.614361
0.311035	1.614383
0.311523	1.614268
0.312012	1.614449
0.312500	1.614396
0.312988	1.614360
0.313477	1.613876
0.313965	1.614344
0.314453	1.614384
0.314941	1.614424
0.315430	1.614143
0.315918	1.614499
0.316406	1.614175
0.316895	1.614348
0.317383	1.614728
0.317871	1.614334
0.318359	1.614474
0.318848	1.614273
0.319336	1.614519
0.319824	1.614161
0.320312	1.614452
0.320801	1.614215
0.321289	1.614474
0.321777	1.614256
0.322266	1.614427
0.322754	1.614212
0.323242	1.614375
0.323730	1.614452
0.324219	1.614370
0.324707	1.614242
0.325195	1.614272
0.325684	1.614320
0.326172	1.614378
0.326660	1.614555
0.327148	1.614380
0.327637	1.614569
0.328125	1.614427
0.328613	1.614384
0.329102	1.614591
0.329590	1.614516
0.330078	1.614727
0.330566	1.614526
0.331055	1.614501
0.331543	1.614386
0.332031	1.614392
0.332520	1.614525
0.333008	1.614441
0.333496	1.614286
0.333984	1.614304
0.334473	1.614604
0.334961	1.614430
0.335449	1.614235
0.335937	1.614239
0.336426	1.614300
0.336914	1.614403
0.337402	1.614274
0.337891	1.614360
0.338379	1.614231
0.338867	1.614482
0.339355	1.614228
0.339844	1.614453
0.340332	1.614575
0.340820	1.614430
0.341309	1.614433
0.341797	1.614397
0.342285	1.614225
0.342773	1.614179
0.343262	1.614407
0.343750	1.614269
0.344238	1.614455
0.344727	1.614175
0.345215	1.614340
0.345703	1.614127
0.346191	1.614448
0.346680	1.614467
0.347168	1.614698
0.347656	1.614543
0.348145	1.614644
0.348633	1.614341
0.349121	1.614510
0.349609	1.614561
0.350098	1.614662
0.350586	1.614648
0.351074	1.614607
0.351562	1.614597
0.352051	1.614414
0.352539	1.614560
0.353027	1.614519
0.353516	1.614445
0.354004	1.614454
0.354492	1.614477
0.354980	1.614394
0.355469	1.614582
0.355957	1.614615
0.356445	1.614698
0.356934	1.614448
0.357422	1.614505
0.357910	1.614703
0.358398	1.614428
0.358887	1.614768
0.359375	1.614660
0.359863	1.614604
0.360352	1.614561
0.360840	1.614729
0.361328	1.614890
0.361816	1.614372
0.362305	1.614577
0.362793	1.614316
0.363281	1.614407
0.363770	1.614467
0.364258	1.614549
0.364746	1.614725
0.365234	1.614639
0.365723	1.614421
0.366211	1.614566
0.366699	1.614611
0.367187	1.614671
0.367676	1.614644
0.368164	1.614516
0.368652	1.614411
0.369141	1.614376
0.369629	1.614517
0.370117	1.614514
0.370605	1.614715
0.371094	1.614646
0.371582	1.614638
0.372070	1.614651
0.372559	1.614651
0.373047	1.614912
0.373535	1.614314
0.374023	1.614533
0.374512	1.614480
0.375000	1.614610
0.375488	1.614740
0.375977	1.614753
0.376465	1.614937
0.376953	1.614818
0.377441	1.614652
0.377930	1.614776
0.378418	1.614722
0.378906	1.614622
0.379395	1.614721
0.379883	1.614652
0.380371	1.614557
0.380859	1.614695
0.381348	1.614784
0.381836	1.614630
0.382324	1.614637
0.382812	1.614542
0.383301	1.614592
0.383789	1.614735
0.384277	1.614875
0.384766	1.614671
0.385254	1.614575
0.385742	1.614348
0.386230	1.614662
0.386719	1.614771
0.387207	1.614829
0.387695	1.614573
0.388184	1.614838
0.388672	1.614691
0.389160	1.614189
0.389648	1.614589
0.390137	1.614458
0.390625	1.614583
0.391113	1.614525
0.391602	1.614419
0.392090	1.614377
0.392578	1.614501
0.393066	1.614561
0.393555	1.614641
0.394043	1.614435
0.394531	1.614438
0.395020	1.614472
0.395508	1.614435
0.395996	1.614549
0.396484	1.614298
0.396973	1.614437
0.397461	1.614413
0.397949	1.614364
0.398437	1.614414
0.398926	1.614383
0.399414	1.614317
0.399902	1.614441
0.400391	1.614357
0.400879	1.614280
0.401367	1.614239
0.401855	1.614280
0.402344	1.614239
0.402832	1.614591
0.403320	1.614183
0.403809	1.614126
0.404297	1.614218
0.404785	1.614096
0.405273	1.614149
0.405762	1.614183
0.406250	1.614155
0.406738	1.613955
0.407227	1.614431
0.407715	1.614384
0.408203	1.614434
0.408691	1.614070
0.409180	1.614275
0.409668	1.614191
0.410156	1.614518
0.410645	1.614366
0.411133	1.614269
0.411621	1.614345
0.412109	1.614018
0.412598	1.614381
0.413086	1.614230
0.413574	1.614281
0.414062	1.614233
0.414551	1.614273
0.415039	1.614234
0.415527	1.614311
0.416016	1.614270
0.416504	1.614528
0.416992	1.614578
0.417480	1.614583
0.417969	1.614279
0.418457	1.614273
0.418945	1.614305
0.419434	1.614320
0.419922	1.614611
0.420410	1.614485
0.420898	1.614375
0.421387	1.614348
0.421875	1.614767
0.422363	1.614699
0.422852	1.614182
0.423340	1.614356
0.423828	1.614115
0.424316	1.614245
0.424805	1.614412
0.425293	1.614571
0.425781	1.614414
0.426270	1.614600
0.426758	1.614574
0.427246	1.614500
0.427734	1.614442
0.428223	1.614651
0.428711	1.614496
0.429199	1.614541
0.429687	1.614442
0.430176	1.614575
0.430664	1.614634
0.431152	1.614737
0.431641	1.614483
0.432129	1.614309
0.432617	1.614530
0.433105	1.614468
0.433594	1.614517
0.434082	1.614362
0.434570	1.614389
0.435059	1.614426
0.435547	1.614411
0.436035	1.614488
0.436523	1.614741
0.437012	1.614483
0.437500	1.614638
0.437988	1.614449
0.438477	1.614503
0.438965	1.614445
0.439453	1.614600
0.439941	1.614611
0.440430	1.614561
0.440918	1.614483
0.441406	1.614480
0.441895	1.614759
0.442383	1.614574
0.442871	1.614945
0.443359	1.614534
0.443848	1.614501
0.444336	1.614638
0.444824	1.614676
0.445312	1.614702
0.445801	1.614397
0.446289	1.614658
0.446777	1.614640
0.447266	1.614528
0.447754	1.614790
0.448242	1.614538
0.448730	1.614540
0.449219	1.614597
0.449707	1.614857
0.450195	1.614566
0.450684	1.614540
0.451172	1.614463
0.451660	1.614721
0.452148	1.614735
0.452637	1.614756
0.453125	1.615037
0.453613	1.614638
0.454102	1.614858
0.454590	1.614503
0.455078	1.614842
0.455566	1.614865
0.456055	1.614882
0.456543	1.614904
0.457031	1.614856
0.457520	1.614851
0.458008	1.614730
0.458496	1.614829
0.458984	1.614711
0.459473	1.614936
0.459961	1.614907
0.460449	1.614731
0.460937	1.614976
0.461426	1.614726
0.461914	1.614969
0.462402	1.614918
0.462891	1.615096
0.463379	1.615233
0.463867	1.614895
0.464355	1.614895
0.464844	1.614659
0.465332	1.614811
0.465820	1.614998
0.466309	1.615019
0.466797	1.615094
0.467285	1.614938
0.467773	1.614830
0.468262	1.614863
0.468750	1.615037
0.469238	1.615131
0.469727	1.614717
0.470215	1.615159
0.470703	1.615070
0.471191	1.615095
0.471680	1.615096
0.472168	1.614725
0.472656	1.615007
0.473145	1.614781
0.473633	1.615009
0.474121	1.615230
0.474609	1.615078
0.475098	1.615061
0.475586	1.614887
0.476074	1.615014
0.476562	1.614714
0.477051	1.614845
0.477539	1.615058
0.478027	1.615036
0.478516	1.614926
0.479004	1.614978
0.479492	1.615116
0.479980	1.615014
0.480469	1.615128
0.480957	1.614898
0.481445	1.614874
0.481934	1.614967
0.482422	1.614886
0.482910	1.615059
0.483398	1.614912
0.483887	1.615035
0.484375	1.614922
0.484863	1.615199
0.485352	1.615173
0.485840	1.614774
0.486328	1.615074
0.486816	1.614867
0.487305	1.614931
0.487793	1.614959
0.488281	1.615000
0.488770	1.615514
0.489258	1.615086
0.489746	1.615084
0.490234	1.615059
0.490723	1.614928
0.491211	1.614981
0.491699	1.615130
0.492187	1.615177
0.492676	1.615161
0.493164	1.614791
0.493652	1.614989
0.494141	1.614740
0.494629	1.614979
0.495117	1.614978
0.495605	1.614883
0.496094	1.614989
0.496582	1.614810
0.497070	1.615009
0.497559	1.615086
0.498047	1.614895
0.498535	1.614777
0.499023	1.614857
0.499512	1.614823
0.500000	1.614865
0.500488	1.614680
0.500977	1.614795
0.501465	1.614793
0.501953	1.614714
0.502441	1.614757
0.502930	1.614818
0.503418	1.614895
0.503906	1.614688
0.504395	1.614818
0.504883	1.614533
0.505371	1.614727
0.505859	1.614689
0.506348	1.614685
0.506836	1.614483
0.507324	1.614519
0.507812	1.614549
0.508301	1.614482
0.508789	1.614593
0.509277	1.614552
0.509766	1.614460
0.510254	1.614527
0.510742	1.614294
0.511230	1.614599
0.511719	1.614678
0.512207	1.614523
0.512695	1.614671
0.513184	1.614521
0.513672	1.614429
0.514160	1.614611
0.514648	1.614522
0.515137	1.614539
0.515625	1.614264
0.516113	1.614292
0.516602	1.614353
0.517090	1.614184
0.517578	1.614781
0.518066	1.614392
0.518555	1.614366
0.519043	1.614217
0.519531	1.614300
0.520020	1.614402
0.520508	1.614654
0.520996	1.614564
0.521484	1.614286
0.521973	1.614256
0.522461	1.614387
0.522949	1.614319
0.523437	1.614416
0.523926	1.614143
0.524414	1.614268
0.524902	1.614144
0.525391	1.614148
0.525879	1.614238
0.526367	1.614151
0.526855	1.614466
0.527344	1.614250
0.527832	1.614373
0.528320	1.614203
0.528809	1.614376
0.529297	1.614452
0.529785	1.614391
0.530273	1.614320
0.530762	1.614302
0.531250	1.614352
0.531738	1.614480
0.532227	1.614540
0.532715	1.614505
0.533203	1.614491
0.533691	1.614331
0.534180	1.614450
0.534668	1.614350
0.535156	1.614209
0.535645	1.614292
0.536133	1.614380
0.536621	1.614226
0.537109	1.614532
0.537598	1.614605
0.538086	1.614665
0.538574	1.614348
0.539062	1.614446
0.539551	1.614556
0.540039	1.614397
0.540527	1.614665
0.541016	1.614710
0.541504	1.614626
0.541992	1.614583
0.542480	1.614656
0.542969	1.614606
0.543457	1.614544
0.543945	1.614613
0.544434	1.614848
0.544922	1.614640
0.545410	1.614740
0.545898	1.614616
0.546387	1.614831
0.546875	1.614649
0.547363	1.614647
0.547852	1.614269
0.548340	1.614391
0.548828	1.614524
0.549316	1.614576
0.549805	1.614428
0.550293	1.614647
0.550781	1.614626
0.551270	1.614617
0.551758	1.615167
0.552246	1.614765
0.552734	1.614716
0.553223	1.614638
0.553711	1.614912
0.554199	1.614754
0.554687	1.614899
0.555176	1.614743
0.555664	1.614959
0.556152	1.614777
0.556641	1.614950
0.557129	1.614632
0.557617	1.614907
0.558105	1.614971
0.558594	1.614921
0.559082	1.614806
0.559570	1.614824
0.560059	1.615004
0.560547	1.615110
0.561035	1.615152
0.561523	1.614934
0.562012	1.615071
0.562500	1.614699
0.562988	1.614903
0.563477	1.614773
0.563965	1.615003
0.564453	1.615374
0.564941	1.615062
0.565430	1.614968
0.565918	1.614921
0.566406	1.615083
0.566895	1.614823
0.567383	1.614895
0.567871	1.615078
0.568359	1.615036
0.568848	1.614957
0.569336	1.615081
0.569824	1.615411
0.570312	1.615079
0.570801	1.615153
0.571289	1.615217
0.571777	1.614958
0.572266	1.615275
0.572754	1.614983
0.573242	1.615095
0.573730	1.614760
0.574219	1.615097
0.574707	1.614847
0.575195	1.615083
0.575684	1.615204
0.576172	1.614971
0.576660	1.614782
0.577148	1.614941
0.577637	1.614887
0.578125	1.615054
0.578613	1.615164
0.579102	1.614820
0.579590	1.614929
0.580078	1.614774
0.580566	1.614995
0.581055	1.615033
0.581543	1.615062
0.582031	1.614852
0.582520	1.614843
0.583008	1.614884
0.583496	1.614711
0.583984	1.614840
0.584473	1.614798
0.584961	1.614639
0.585449	1.614806
0.585937	1.614780
0.586426	1.614999
0.586914	1.614788
0.587402	1.614859
0.587891	1.614646
0.588379	1.614847
0.588867	1.614725
0.589355	1.614481
0.589844	1.614987
0.590332	1.615058
0.590820	1.614946
0.591309	1.614591
0.591797	1.614749
0.592285	1.614632
0.592773	1.614898
0.593262	1.614619
0.593750	1.614402
0.594238	1.614527
0.594727	1.614348
0.595215	1.614477
0.595703	1.614535
0.596191	1.614465
0.596680	1.614319
0.597168	1.614553
0.597656	1.614398
0.598145	1.614700
0.598633	1.614492
0.599121	1.614824
0.599609	1.614601
0.600098	1.614647
0.600586	1.614618
0.601074	1.614738
0.601562	1.614511
0.602051	1.614542
0.602539	1.614490
0.603027	1.614297
0.603516	1.614386
0.604004	1.614488
0.604492	1.614483
0.604980	1.614416
0.605469	1.614730
0.605957	1.614373
0.606445	1.614666
0.606934	1.614632
0.607422	1.614651
0.607910	1.614533
0.608398	1.614804
0.608887	1.614472
0.609375	1.614527
0.609863	1.614677
0.610352	1.614604
0.610840	1.614854
0.611328	1.614596
0.611816	1.614610
0.612305	1.614598
0.612793	1.614539
0.613281	1.614688
0.613770	1.614726
0.614258	1.614564
0.614746	1.614575
0.615234	1.614420
0.615723	1.614357
0.616211	1.614534
0.616699	1.614517
0.617187	1.614491
0.617676	1.614414
0.618164	1.614518
0.618652	1.614468
0.619141	1.614804
0.619629	1.614488
0.620117	1.614733
0.620605	1.614665
0.621094	1.614585
0.621582	1.614719
0.622070	1.614659
0.622559	1.614532
0.623047	1.614485
0.623535	1.614211
0.624023	1.614581
0.624512	1.614620
0.625000	1.614610
0.625488	1.614415
0.625977	1.614464
0.626465	1.614456
0.626953	1.614632
0.627441	1.614589
0.627930	1.614628
0.628418	1.614661
0.628906	1.614526
0.629395	1.614622
0.629883	1.614632
0.630371	1.614758
0.630859	1.614757
0.631348	1.614537
0.631836	1.614704
0.632324	1.614878
0.632812	1.614392
0.633301	1.614644
0.633789	1.614829
0.634277	1.614877
0.634766	1.614790
0.635254	1.614579
0.635742	1.615058
0.636230	1.614710
0.636719	1.614715
0.637207	1.614695
0.637695	1.614693
0.638184	1.614862
0.638672	1.614780
0.639160	1.614788
0.639648	1.614846
0.640137	1.614948
0.640625	1.614859
0.641113	1.614857
0.641602	1.614801
0.642090	1.614857
0.642578	1.614912
0.643066	1.614747
0.643555	1.614674
0.644043	1.614793
0.644531	1.614580
0.645020	1.614928
0.645508	1.614699
0.645996	1.614660
0.646484	1.614750
0.646973	1.614779
0.647461	1.614984
0.647949	1.614788
0.648437	1.615101
0.648926	1.614775
0.649414	1.614782
0.649902	1.615180
0.650391	1.614907
0.650879	1.615066
0.651367	1.615054
0.651855	1.615250
0.652344	1.615180
0.652832	1.614865
0.653320	1.615090
0.653809	1.615002
0.654297	1.614960
0.654785	1.614915
0.655273	1.614997
0.655762	1.614652
0.656250	1.615078
0.656738	1.615098
0.657227	1.615049
0.657715	1.614804
0.658203	1.615032
0.658691	1.614984
0.659180	1.615270
0.659668	1.615351
0.660156	1.614784
0.660645	1.614976
0.661133	1.614917
0.661621	1.615025
0.662109	1.614878
0.662598	1.614934
0.663086	1.614768
0.663574	1.614774
0.664062	1.614759
0.664551	1.614598
0.665039	1.614687
0.665527	1.614940
0.666016	1.614887
0.666504	1.614881
0.666992	1.614814
0.667480	1.614643
0.667969	1.614787
0.668457	1.614779
0.668945	1.614795
0.669434	1.614620
0.669922	1.614852
0.670410	1.614883
0.670898	1.614636
0.671387	1.614791
0.671875	1.614693
0.672363	1.614613
0.672852	1.614550
0.673340	1.614558
0.673828	1.614434
0.674316	1.614543
0.674805	1.614323
0.675293	1.614616
0.675781	1.614495
0.676270	1.614585
0.676758	1.614702
0.677246	1.614669
0.677734	1.614582
0.678223	1.614503
0.678711	1.614557
0.679199	1.614609
0.679687	1.614732
0.680176	1.614439
0.680664	1.614589
0.681152	1.614461
0.681641	1.614514
0.682129	1.614717
0.682617	1.614636
0.683105	1.614771
0.683594	1.614593
0.684082	1.614758
0.684570	1.614588
0.685059	1.614693
0.685547	1.614765
0.686035	1.614785
0.686523	1.614474
0.687012	1.614540
0.687500	1.614678
0.687988	1.614557
0.688477	1.614883
0.688965	1.614670
0.689453	1.614835
0.689941	1.614852
0.690430	1.614882
0.690918	1.614687
0.691406	1.614683
0.691895	1.614834
0.692383	1.614510
0.692871	1.614696
0.693359	1.614642
0.693848	1.614614
0.694336	1.614680
0.694824	1.614589
0.695312	1.614438
0.695801	1.614204
0.696289	1.614203
0.696777	1.614611
0.697266	1.614624
0.697754	1.614573
0.698242	1.614607
0.698730	1.614754
0.699219	1.614604
0.699707	1.614924
0.700195	1.614741
0.700684	1.614672
0.701172	1.614557
0.701660	1.614787
0.702148	1.614607
0.702637	1.614884
0.703125	1.614926
0.703613	1.614728
0.704102	1.614727
0.704590	1.614533
0.705078	1.614644
0.705566	1.614732
0.706055	1.614809
0.706543	1.614754
0.707031	1.614746
0.707520	1.614603
0.708008	1.614713
0.708496	1.614518
0.708984	1.614711
0.709473	1.614690
0.709961	1.614751
0.710449	1.614684
0.710937	1.614817
0.711426	1.615025
0.711914	1.614973
0.712402	1.614926
0.712891	1.614768
0.713379	1.614594
0.713867	1.614593
0.714355	1.614721
0.714844	1.614527
0.715332	1.614484
0.715820	1.614783
0.716309	1.614553
0.716797	1.614639
0.717285	1.614917
0.717773	1.614917
0.718262	1.614494
0.718750	1.614652
0.719238	1.614533
0.719727	1.614729
0.720215	1.614631
0.720703	1.614451
0.721191	1.614488
0.721680	1.614596
0.722168	1.614310
0.722656	1.614707
0.723145	1.614323
0.723633	1.614345
0.724121	1.614772
0.724609	1.614473
0.725098	1.614391
0.725586	1.614491
0.726074	1.614539
0.726562	1.614514
0.727051	1.614284
0.727539	1.614474
0.728027	1.614442
0.728516	1.614411
0.729004	1.614592
0.729492	1.614509
0.729980	1.614466
0.730469	1.614462
0.730957	1.614352
0.731445	1.614444
0.731934	1.614419
0.732422	1.614441
0.732910	1.614438
0.733398	1.614314
0.733887	1.614579
0.734375	1.614454
0.734863	1.614429
0.735352	1.614618
0.735840	1.614044
0.736328	1.614273
0.736816	1.614286
0.737305	1.614278
0.737793	1.614388
0.738281	1.614341
0.738770	1.614536
0.739258	1.614217
0.739746	1.614294
0.740234	1.614359
0.740723	1.614113
0.741211	1.614141
0.741699	1.614163
0.742187	1.614390
0.742676	1.614150
0.743164	1.614468
0.743652	1.614136
0.744141	1.614290
0.744629	1.614331
0.745117	1.614267
0.745605	1.614436
0.746094	1.614260
0.746582	1.614222
0.747070	1.614264
0.747559	1.614139
0.748047	1.614251
0.748535	1.614205
0.749023	1.614224
0.749512	1.614276
0.750000	1.614140
0.750488	1.614158
0.750977	1.614191
0.751465	1.614192
0.751953	1.614164
0.752441	1.614264
0.752930	1.614283
0.753418	1.614139
0.753906	1.614241
0.754395	1.614198
0.754883	1.614360
0.755371	1.614297
0.755859	1.614319
0.756348	1.614394
0.756836	1.614279
0.757324	1.614333
0.757812	1.614416
0.758301	1.614271
0.758789	1.614143
0.759277	1.614275
0.759766	1.614101
0.760254	1.614191
0.760742	1.614027
0.761230	1.614142
0.761719	1.613954
0.762207	1.614070
0.762695	1.614087
0.763184	1.614247
0.763672	1.614382
0.764160	1.614224
0.764648	1.614266
0.765137	1.613999
0.765625	1.614350
0.766113	1.614007
0.766602	1.614182
0.767090	1.614251
0.767578	1.614218
0.768066	1.613995
0.768555	1.614383
0.769043	1.614412
0.769531	1.614503
0.770020	1.614568
0.770508	1.614474
0.770996	1.614353
0.771484	1.614295
0.771973	1.614514
0.772461	1.614428
0.772949	1.614428
0.773437	1.614234
0.773926	1.614340
0.774414	1.614101
0.774902	1.614508
0.775391	1.614199
0.775879	1.614365
0.776367	1.614439
0.776855	1.614474
0.777344	1.614109
0.777832	1.614602
0.778320	1.614536
0.778809	1.614619
0.779297	1.614569
0.779785	1.614499
0.780273	1.614546
0.780762	1.614582
0.781250	1.614679
0.781738	1.614479
0.782227	1.614360
0.782715	1.614399
0.783203	1.614452
0.783691	1.614270
0.784180	1.614597
0.784668	1.614245
0.785156	1.614458
0.785645	1.614534
0.786133	1.614548
0.786621	1.614458
0.787109	1.614509
0.787598	1.614547
0.788086	1.614593
0.788574	1.614634
0.789062	1.614339
0.789551	1.614641
0.790039	1.614594
0.790527	1.614390
0.791016	1.614528
0.791504	1.614558
0.791992	1.614476
0.792480	1.614601
0.792969	1.614448
0.793457	1.614292
0.793945	1.614225
0.794434	1.614390
0.794922	1.614486
0.795410	1.614544
0.795898	1.614486
0.796387	1.614416
0.796875	1.614353
0.797363	1.614374
0.797852	1.614550
0.798340	1.614593
0.798828	1.614651
0.799316	1.614449
0.799805	1.614805
0.800293	1.614815
0.800781	1.614665
0.801270	1.614707
0.801758	1.614639
0.802246	1.614832
0.802734	1.614535
0.803223	1.614408
0.803711	1.614492
0.804199	1.614722
0.804687	1.614676
0.805176	1.614671
0.805664	1.614405
0.806152	1.614548
0.806641	1.614528
0.807129	1.614786
0.807617	1.614527
0.808105	1.614636
0.808594	1.614650
0.809082	1.614527
0.809570	1.614690
0.810059	1.614763
0.810547	1.614741
0.811035	1.614757
0.811523	1.614583
0.812012	1.614814
0.812500	1.614818
0.812988	1.614858
0.813477	1.614765
0.813965	1.615010
0.814453	1.614767
0.814941	1.614741
0.815430	1.614713
0.815918	1.614930
0.816406	1.614785
0.816895	1.614619
0.817383	1.614744
0.817871	1.614578
0.818359	1.614787
0.818848	1.614797
0.819336	1.614636
0.819824	1.614558
0.820312	1.614880
0.820801	1.614419
0.821289	1.614644
0.821777	1.614625
0.822266	1.614312
0.822754	1.614777
0.823242	1.614392
0.823730	1.614904
0.824219	1.614633
0.824707	1.614195
0.825195	1.614663
0.825684	1.614544
0.826172	1.614583
0.826660	1.614461
0.827148	1.614567
0.827637	1.614916
0.828125	1.614334
0.828613	1.614446
0.829102	1.614386
0.829590	1.614439
0.830078	1.614748
0.830566	1.614535
0.831055	1.614846
0.831543	1.614430
0.832031	1.614538
0.832520	1.614603
0.833008	1.614591
0.833496	1.614494
0.833984	1.614099
0.834473	1.614658
0.834961	1.614629
0.835449	1.614660
0.835937	1.614578
0.836426	1.614620
0.836914	1.614511
0.837402	1.614578
0.837891	1.614550
0.838379	1.614601
0.838867	1.614757
0.839355	1.614708
0.839844	1.614722
0.840332	1.614719
0.840820	1.614898
0.841309	1.614771
0.841797	1.614839
0.842285	1.614940
0.842773	1.614397
0.843262	1.614630
0.843750	1.614403
0.844238	1.614633
0.844727	1.614774
0.845215	1.614589
0.845703	1.614701
0.846191	1.614571
0.846680	1.614711
0.847168	1.614694
0.847656	1.614813
0.848145	1.614616
0.848633	1.614565
0.849121	1.614878
0.849609	1.614836
0.850098	1.614704
0.850586	1.614775
0.851074	1.614894
0.851562	1.614901
0.852051	1.614773
0.852539	1.614787
0.853027	1.614656
0.853516	1.614820
0.854004	1.614678
0.854492	1.614696
0.854980	1.614482
0.855469	1.614787
0.855957	1.614912
0.856445	1.614987
0.856934	1.614791
0.857422	1.614694
0.857910	1.614795
0.858398	1.614663
0.858887	1.614943
0.859375	1.614560
0.859863	1.614760
0.860352	1.614530
0.860840	1.614700
0.861328	1.614565
0.861816	1.614541
0.862305	1.614705
0.862793	1.614632
0.863281	1.614503
0.863770	1.614593
0.864258	1.614602
0.864746	1.614467
0.865234	1.614496
0.865723	1.614687
0.866211	1.614395
0.866699	1.614503
0.867187	1.614400
0.867676	1.614436
0.868164	1.614238
0.868652	1.614461
0.869141	1.614258
0.869629	1.614300
0.870117	1.614413
0.870605	1.614352
0.871094	1.614391
0.871582	1.614339
0.872070	1.614269
0.872559	1.614309
0.873047	1.614485
0.873535	1.614221
0.874023	1.614436
0.874512	1.614297
0.875000	1.614067
0.875488	1.614188
0.875977	1.614324
0.876465	1.614322
0.876953	1.614106
0.877441	1.614278
0.877930	1.614251
0.878418	1.614140
0.878906	1.614292
0.879395	1.614486
0.879883	1.614615
0.880371	1.614203
0.880859	1.614243
0.881348	1.614204
0.881836	1.614551
0.882324	1.614146
0.882812	1.614373
0.883301	1.614251
0.883789	1.614421
0.884277	1.614235
0.884766	1.614563
0.885254	1.614398
0.885742	1.614600
0.886230	1.614563
0.886719	1.614511
0.887207	1.614429
0.887695	1.614446
0.888184	1.614561
0.888672	1.614393
0.889160	1.614341
0.889648	1.614380
0.890137	1.614500
0.890625	1.614511
0.891113	1.614402
0.891602	1.614383
0.892090	1.614519
0.892578	1.614239
0.893066	1.614517
0.893555	1.614563
0.894043	1.614530
0.894531	1.614394
0.895020	1.614566
0.895508	1.614386
0.895996	1.614525
0.896484	1.614664
0.896973	1.614588
0.897461	1.614655
0.897949	1.614668
0.898437	1.614562
0.898926	1.614624
0.899414	1.614809
0.899902	1.614985
0.900391	1.614751
0.900879	1.614729
0.901367	1.614747
0.901855	1.614849
0.902344	1.614574
0.902832	1.614840
0.903320	1.614525
0.903809	1.614534
0.904297	1.614586
0.904785	1.614682
0.905273	1.614338
0.905762	1.614851
0.906250	1.614583
0.906738	1.614679
0.907227	1.614735
0.907715	1.614683
0.908203	1.614501
0.908691	1.614608
0.909180	1.614737
0.909668	1.614447
0.910156	1.614734
0.910645	1.614672
0.911133	1.614604
0.911621	1.614622
0.912109	1.614736
0.912598	1.614609
0.913086	1.614538
0.913574	1.614576
0.914062	1.614489
0.914551	1.614325
0.915039	1.614580
0.915527	1.614366
0.916016	1.614337
0.916504	1.614469
0.916992	1.614301
0.917480	1.614328
0.917969	1.614256
0.918457	1.614048
0.918945	1.614394
0.919434	1.614216
0.919922	1.614369
0.920410	1.614397
0.920898	1.614565
0.921387	1.613798
0.921875	1.614164
0.922363	1.614124
0.922852	1.614181
0.923340	1.614013
0.923828	1.614288
0.924316	1.613963
0.924805	1.614132
0.925293	1.614494
0.925781	1.614243
0.926270	1.614455
0.926758	1.614343
0.927246	1.614459
0.927734	1.614076
0.928223	1.614435
0.928711	1.614458
0.929199	1.614394
0.929687	1.614311
0.930176	1.614331
0.930664	1.614027
0.931152	1.614398
0.931641	1.614272
0.932129	1.614358
0.932617	1.614087
0.933105	1.614360
0.933594	1.613944
0.934082	1.614369
0.934570	1.614226
0.935059	1.614342
0.935547	1.614371
0.936035	1.614293
0.936523	1.614262
0.937012	1.614422
0.937500	1.614422
0.937988	1.614175
0.938477	1.614402
0.938965	1.614272
0.939453	1.614501
0.939941	1.614402
0.940430	1.614518
0.940918	1.614324
0.941406	1.614298
0.941895	1.614426
0.942383	1.614426
0.942871	1.614429
0.943359	1.614254
0.943848	1.614248
0.944336	1.614237
0.944824	1.614132
0.945312	1.614704
0.945801	1.614380
0.946289	1.614751
0.946777	1.614370
0.947266	1.614010
0.947754	1.614485
0.948242	1.614200
0.948730	1.614477
0.949219	1.614557
0.949707	1.614517
0.950195	1.614777
0.950684	1.614146
0.951172	1.614386
0.951660	1.614672
0.952148	1.614466
0.952637	1.614357
0.953125	1.614235
0.953613	1.614449
0.954102	1.614352
0.954590	1.614225
0.955078	1.614493
0.955566	1.614157
0.956055	1.614422
0.956543	1.614380
0.957031	1.614408
0.957520	1.614515
0.958008	1.614427
0.958496	1.614453
0.958984	1.614115
0.959473	1.614569
0.959961	1.614317
0.960449	1.614524
0.960937	1.614695
0.961426	1.614385
0.961914	1.614657
0.962402	1.614351
0.962891	1.614404
0.963379	1.614461
0.963867	1.614522
0.964355	1.614394
0.964844	1.614233
0.965332	1.614388
0.965820	1.614534
0.966309	1.614502
0.966797	1.614354
0.967285	1.614269
0.967773	1.614240
0.968262	1.614297
0.968750	1.614428
0.969238	1.614197
0.969727	1.614369
0.970215	1.614508
0.970703	1.614333
0.971191	1.614096
0.971680	1.614751
0.972168	1.614442
0.972656	1.614644
0.973145	1.614568
0.973633	1.614265
0.974121	1.614182
0.974609	1.614445
0.975098	1.614494
0.975586	1.614348
0.976074	1.614277
0.976562	1.614134
0.977051	1.614259
0.977539	1.614140
0.978027	1.614495
0.978516	1.614249
0.979004	1.614320
0.979492	1.614344
0.979980	1.614611
0.980469	1.614412
0.980957	1.614711
0.981445	1.614464
0.981934	1.614787
0.982422	1.614599
0.982910	1.614578
0.983398	1.614430
0.983887	1.614614
0.984375	1.614666
0.984863	1.614589
0.985352	1.614513
0.985840	1.614643
0.986328	1.614502
0.986816	1.614604
0.987305	1.614603
0.987793	1.614339
0.988281	1.614331
0.988770	1.614429
0.989258	1.614456
0.989746	1.614441
0.990234	1.614549
0.990723	1.614299
0.991211	1.614592
0.991699	1.614463
0.992187	1.614289
0.992676	1.614358
0.993164	1.614170
0.993652	1.614219
0.994141	1.614398
0.994629	1.614385
0.995117	1.614425
0.995605	1.614202
0.996094	1.614353
0.996582	1.614419
0.997070	1.614277
0.997559	1.614617
0.998047	1.614542
0.998535	1.614353
0.999023	1.614380
0.999512	1.614671
1.000000	1.614391
1.000488	1.614483
1.000977	1.614458
1.001465	1.614571
1.001953	1.614358
1.002441	1.614359
1.002930	1.614299
1.003418	1.614196
1.003906	1.614465
1.004395	1.614462
1.004883	1.614350
1.005371	1.614171
1.005859	1.614391
1.006348	1.614404
1.006836	1.614646
1.007324	1.614378
1.007812	1.614366
1.008301	1.614386
1.008789	1.614334
1.009277	1.614257
1.009766	1.614519
1.010254	1.614541
1.010742	1.614500
1.011230	1.614507
1.011719	1.614422
1.012207	1.614623
1.012695	1.614405
1.013184	1.614262
1.013672	1.614378
1.014160	1.614412
1.014648	1.614242
1.015137	1.614435
1.015625	1.614245
1.016113	1.614346
1.016602	1.614467
1.017090	1.614294
1.017578	1.614190
1.018066	1.614186
1.018555	1.614541
1.019043	1.614369
1.019531	1.614204
1.020020	1.614442
1.020508	1.614267
1.020996	1.614485
1.021484	1.614434
1.021973	1.614433
1.022461	1.614276
1.022949	1.614348
1.023437	1.614421
1.023926	1.614450
1.024414	1.614464
1.024902	1.614297
1.025391	1.614358
1.025879	1.614525
1.026367	1.614502
1.026855	1.614452
1.027344	1.614598
1.027832	1.614463
1.028320	1.614536
1.028809	1.614351
1.029297	1.614478
1.029785	1.614507
1.030273	1.614873
1.030762	1.614576
1.031250	1.614751
1.031738	1.614634
1.032227	1.614746
1.032715	1.614767
1.033203	1.614584
1.033691	1.614610
1.034180	1.614434
1.034668	1.614658
1.035156	1.614632
1.035645	1.614712
1.036133	1.614421
1.036621	1.614708
1.037109	1.614615
1.037598	1.614585
1.038086	1.614848
1.038574	1.614792
1.039062	1.614802
1.039551	1.614896
1.040039	1.614663
1.040527	1.614810
1.041016	1.614799
1.041504	1.614803
1.041992	1.614865
1.042480	1.614884
1.042969	1.614632
1.043457	1.614820
1.043945	1.614802
1.044434	1.614925
1.044922	1.614789
1.045410	1.614895
1.045898	1.614865
1.046387	1.614874
1.046875	1.614782
1.047363	1.614887
1.047852	1.614669
1.048340	1.614878
1.048828	1.614636
1.049316	1.614615
1.049805	1.614797
1.050293	1.614945
1.050781	1.614644
1.051270	1.614865
1.051758	1.614888
1.052246	1.614730
1.052734	1.615115
1.053223	1.614669
1.053711	1.614886
1.054199	1.614642
1.054687	1.614791
1.055176	1.614721
1.055664	1.614783
1.056152	1.614634
1.056641	1.614728
1.057129	1.614619
1.057617	1.614719
1.058105	1.614574
1.058594	1.614602
1.059082	1.614740
1.059570	1.614626
1.060059	1.614647
1.060547	1.614544
1.061035	1.614547
1.061523	1.614623
1.062012	1.614738
1.062500	1.614532
1.062988	1.614441
1.063477	1.614248
1.063965	1.614686
1.064453	1.614242
1.064941	1.614454
1.065430	1.614571
1.065918	1.614409
1.066406	1.614372
1.066895	1.614577
1.067383	1.614250
1.067871	1.614466
1.068359	1.614699
1.068848	1.614174
1.069336	1.614206
1.069824	1.614491
1.070312	1.614535
1.070801	1.614419
1.071289	1.614287
1.071777	1.614706
1.072266	1.614374
1.072754	1.614035
1.073242	1.614419
1.073730	1.614417
1.074219	1.614513
1.074707	1.614575
1.075195	1.614496
1.075684	1.614320
1.076172	1.614641
1.076660	1.614605
1.077148	1.614569
1.077637	1.614414
1.078125	1.614405
1.078613	1.614430
1.079102	1.614605
1.079590	1.614630
1.080078	1.614536
1.080566	1.614496
1.081055	1.614513
1.081543	1.614674
1.082031	1.614549
1.082520	1.614568
1.083008	1.614486
1.083496	1.614460
1.083984	1.614627
1.084473	1.614561
1.084961	1.614620
1.085449	1.614817
1.085937	1.614523
1.086426	1.614543
1.086914	1.614389
1.087402	1.614516
1.087891	1.614629
1.088379	1.614469
1.088867	1.614408
1.089355	1.614306
1.089844	1.614490
1.090332	1.614586
1.090820	1.614500
1.091309	1.614496
1.091797	1.614461
1.092285	1.614452
1.092773	1.614425
1.093262	1.614609
1.093750	1.614417
1.094238	1.614312
1.094727	1.614273
1.095215	1.614589
1.095703	1.614486
1.096191	1.614703
1.096680	1.614726
1.097168	1.614569
1.097656	1.614612
1.098145	1.614557
1.098633	1.614635
1.099121	1.614679
1.099609	1.614811
1.100098	1.614615
1.100586	1.614780
1.101074	1.614658
1.101562	1.614824
1.102051	1.614826
1.102539	1.614763
1.103027	1.614740
1.103516	1.614543
1.104004	1.614572
1.104492	1.614634
1.104980	1.614681
1.105469	1.614899
1.105957	1.614674
1.106445	1.614671
1.106934	1.614489
1.107422	1.614613
1.107910	1.614971
1.108398	1.614646
1.108887	1.614869
1.109375	1.614625
1.109863	1.615026
1.110352	1.615042
1.110840	1.614826
1.111328	1.615132
1.111816	1.615019
1.112305	1.615081
1.112793	1.614882
1.113281	1.614890
1.113770	1.614862
1.114258	1.615069
1.114746	1.614860
1.115234	1.614917
1.115723	1.615089
1.116211	1.614869
1.116699	1.614935
1.117187	1.615015
1.117676	1.614989
1.118164	1.614771
1.118652	1.614572
1.119141	1.614967
1.119629	1.614849
1.120117	1.614979
1.120605	1.614921
1.121094	1.614890
1.121582	1.614881
1.122070	1.614902
1.122559	1.614924
1.123047	1.614804
1.123535	1.614913
1.124023	1.615126
1.124512	1.615041
1.125000	1.614907
1.125488	1.615255
1.125977	1.614963
1.126465	1.614770
1.126953	1.615077
1.127441	1.615025
1.127930	1.615012
1.128418	1.615003
1.128906	1.614905
1.129395	1.614668
1.129883	1.614956
1.130371	1.614681
1.130859	1.614811
1.131348	1.614821
1.131836	1.614910
1.132324	1.614513
1.132812	1.614937
1.133301	1.614683
1.133789	1.614902
1.134277	1.614899
1.134766	1.614343
1.135254	1.614627
1.135742	1.614329
1.136230	1.614489
1.136719	1.614533
1.137207	1.614660
1.137695	1.614530
1.138184	1.614627
1.138672	1.614690
1.139160	1.614651
1.139648	1.614840
1.140137	1.614700
1.140625	1.614833
1.141113	1.614522
1.141602	1.614547
1.142090	1.614541
1.142578	1.614863
1.143066	1.614780
1.143555	1.614499
1.144043	1.614535
1.144531	1.614714
1.145020	1.614735
1.145508	1.614652
1.145996	1.614906
1.146484	1.614416
1.146973	1.614477
1.147461	1.614511
1.147949	1.614367
1.148437	1.614331
1.148926	1.614500
1.149414	1.614564
1.149902	1.614483
1.150391	1.614477
1.150879	1.614353
1.151367	1.614330
1.151855	1.614265
1.152344	1.614380
1.152832	1.614348
1.153320	1.614057
1.153809	1.614360
1.154297	1.614381
1.154785	1.614638
1.155273	1.614279
1.155762	1.614214
1.156250	1.614186
1.156738	1.614193
1.157227	1.614429
1.157715	1.614057
1.158203	1.614256
1.158691	1.614051
1.159180	1.614290
1.159668	1.614029
1.160156	1.614555
1.160645	1.614225
1.161133	1.614434
1.161621	1.614320
1.162109	1.614286
1.162598	1.614055
1.163086	1.614076
1.163574	1.614125
1.164062	1.614086
1.164551	1.614067
1.165039	1.613963
1.165527	1.614143
1.166016	1.613883
1.166504	1.614300
1.166992	1.614081
1.167480	1.614068
1.167969	1.614135
1.168457	1.614067
1.168945	1.614226
1.169434	1.614125
1.169922	1.613998
1.170410	1.613984
1.170898	1.614159
1.171387	1.614093
1.171875	1.614139
1.172363	1.614336
1.172852	1.614098
1.173340	1.614159
1.173828	1.614086
1.174316	1.614280
1.174805	1.614115
1.175293	1.614311
1.175781	1.614303
1.176270	1.614389
1.176758	1.614222
1.177246	1.614269
1.177734	1.614690
1.178223	1.614331
1.178711	1.614415
1.179199	1.614397
1.179687	1.614561
1.180176	1.614508
1.180664	1.614440
1.181152	1.614554
1.181641	1.614331
1.182129	1.614465
1.182617	1.614437
1.183105	1.614529
1.183594	1.614491
1.184082	1.614555
1.184570	1.614289
1.185059	1.614257
1.185547	1.614406
1.186035	1.614369
1.186523	1.614318
1.187012	1.614265
1.187500	1.614397
1.187988	1.614288
1.188477	1.614440
1.188965	1.614515
1.189453	1.614627
1.189941	1.614807
1.190430	1.614460
1.190918	1.614538
1.191406	1.614693
1.191895	1.614710
1.192383	1.614611
1.192871	1.614537
1.193359	1.614666
1.193848	1.614568
1.194336	1.614665
1.194824	1.614863
1.195312	1.614743
1.195801	1.614663
1.196289	1.614813
1.196777	1.614535
1.197266	1.614761
1.197754	1.614645
1.198242	1.614826
1.198730	1.614745
1.199219	1.614888
1.199707	1.614785
1.200195	1.615014
1.200684	1.615049
1.201172	1.614828
1.201660	1.614790
1.202148	1.614871
1.202637	1.614910
1.203125	1.614868
1.203613	1.614929
1.204102	1.614744
1.204590	1.614870
1.205078	1.614752
1.205566	1.614839
1.206055	1.614650
1.206543	1.614807
1.207031	1.614838
1.207520	1.614633
1.208008	1.614952
1.208496	1.614768
1.208984	1.614818
1.209473	1.614836
1.209961	1.615009
1.210449	1.615035
1.210937	1.614892
1.211426	1.614719
1.211914	1.614919
1.212402	1.615261
1.212891	1.615056
1.213379	1.614986
1.213867	1.614846
1.214355	1.614924
1.214844	1.615104
1.215332	1.615206
1.215820	1.614811
1.216309	1.614580
1.216797	1.614669
1.217285	1.614851
1.217773	1.614969
1.218262	1.614934
1.218750	1.614780
1.219238	1.614663
1.219727	1.614954
1.220215	1.614848
1.220703	1.614724
1.221191	1.614848
1.221680	1.614725
1.222168	1.614804
1.222656	1.615047
1.223145	1.614577
1.223633	1.614807
1.224121	1.614640
1.224609	1.614926
1.225098	1.614655
1.225586	1.614477
1.226074	1.614921
1.226562	1.614910
1.227051	1.614787
1.227539	1.614831
1.228027	1.614644
1.228516	1.614763
1.229004	1.614936
1.229492	1.614791
1.229980	1.614901
1.230469	1.614497
1.230957	1.614532
1.231445	1.614618
1.231934	1.614499
1.232422	1.614931
1.232910	1.614607
1.233398	1.614558
1.233887	1.614426
1.234375	1.614531
1.234863	1.614407
1.235352	1.614537
1.235840	1.614553
1.236328	1.614723
1.236816	1.614480
1.237305	1.614581
1.237793	1.614297
1.238281	1.614521
1.238770	1.614532
1.239258	1.614421
1.239746	1.614243
1.240234	1.614246
1.240723	1.614212
1.241211	1.614268
1.241699	1.614469
1.242187	1.614275
1.242676	1.614522
1.243164	1.614182
1.243652	1.614326
1.244141	1.614198
1.244629	1.614148
1.245117	1.614292
1.245605	1.614155
1.246094	1.614140
1.246582	1.614243
1.247070	1.614262
1.247559	1.614079
1.248047	1.614143
1.248535	1.614099
1.249023	1.614012
1.249512	1.613948
1.250000	1.614015
1.250488	1.614112
1.250977	1.613951
1.251465	1.613780
1.251953	1.613883
1.252441	1.614162
1.252930	1.613924
1.253418	1.614008
1.253906	1.613910
1.254395	1.613880
1.254883	1.613946
1.255371	1.613816
1.255859	1.613941
1.256348	1.614096
1.256836	1.613858
1.257324	1.614143
1.257812	1.613927
1.258301	1.613933
1.258789	1.614161
1.259277	1.613877
1.259766	1.614170
1.260254	1.614101
1.260742	1.614065
1.261230	1.614052
1.261719	1.614195
1.262207	1.614057
1.262695	1.614246
1.263184	1.613980
1.263672	1.614151
1.264160	1.614070
1.264648	1.614004
1.265137	1.614081
1.265625	1.613878
1.266113	1.614053
1.266602	1.613920
1.267090	1.614209
1.267578	1.614195
1.268066	1.614149
1.268555	1.614222
1.269043	1.614142
1.269531	1.614167
1.270020	1.614413
1.270508	1.614368
1.270996	1.614275
1.271484	1.614215
1.271973	1.614466
1.272461	1.614345
1.272949	1.614375
1.273437	1.614132
1.273926	1.614304
1.274414	1.614331
1.274902	1.614138
1.275391	1.614317
1.275879	1.614423
1.276367	1.614098
1.276855	1.614342
1.277344	1.614502
1.277832	1.614328
1.278320	1.614416
1.278809	1.614445
1.279297	1.614597
1.279785	1.614367
1.280273	1.614292
1.280762	1.614349
1.281250	1.614245
1.281738	1.614514
1.282227	1.614384
1.282715	1.614353
1.283203	1.614311
1.283691	1.614287
1.284180	1.614498
1.284668	1.614247
1.285156	1.614439
1.285645	1.614413
1.286133	1.614427
1.286621	1.614304
1.287109	1.614189
1.287598	1.614237
1.288086	1.614665
1.288574	1.614488
1.289062	1.614234
1.289551	1.614388
1.290039	1.614569
1.290527	1.614580
1.291016	1.614555
1.291504	1.614427
1.291992	1.614560
1.292480	1.614350
1.292969	1.614413
1.293457	1.614549
1.293945	1.614322
1.294434	1.614642
1.294922	1.614501
1.295410	1.614491
1.295898	1.614416
1.296387	1.614627
1.296875	1.614523
1.297363	1.614752
1.297852	1.614685
1.298340	1.614651
1.298828	1.614503
1.299316	1.614835
1.299805	1.614755
1.300293	1.614574
1.300781	1.614337
1.301270	1.614481
1.301758	1.614427
1.302246	1.614630
1.302734	1.614610
1.303223	1.614278
1.303711	1.614529
1.304199	1.614458
1.304687	1.614628
1.305176	1.614551
1.305664	1.614710
1.306152	1.614489
1.306641	1.614715
1.307129	1.614697
1.307617	1.614389
1.308105	1.614834
1.308594	1.614714
1.309082	1.614696
1.309570	1.614784
1.310059	1.614911
1.310547	1.614899
1.311035	1.614934
1.311523	1.614876
1.312012	1.614647
1.312500	1.615015
1.312988	1.614762
1.313477	1.614793
1.313965	1.614844
1.314453	1.614836
1.314941	1.614668
1.315430	1.614876
1.315918	1.614896
1.316406	1.614978
1.316895	1.614971
1.317383	1.614705
1.317871	1.614820
1.318359	1.614754
1.318848	1.614771
1.319336	1.614810
1.319824	1.614885
1.320312	1.614929
1.320801	1.614842
1.321289	1.614769
1.321777	1.614928
1.322266	1.614950
1.322754	1.614744
1.323242	1.614819
1.323730	1.614953
1.324219	1.614860
1.324707	1.615209
1.325195	1.615085
1.325684	1.614623
1.326172	1.614973
1.326660	1.614913
1.327148	1.614905
1.327637	1.614746
1.328125	1.614978
1.328613	1.614762
1.329102	1.614913
1.329590	1.614671
1.330078	1.614945
1.330566	1.615045
1.331055	1.614882
1.331543	1.614807
1.332031	1.614888
1.332520	1.614820
1.333008	1.614362
1.333496	1.614580
1.333984	1.614462
1.334473	1.614764
1.334961	1.614612
1.335449	1.614474
1.335937	1.614559
1.336426	1.614583
1.336914	1.614541
1.337402	1.614721
1.337891	1.614629
1.338379	1.614610
1.338867	1.614604
1.339355	1.614344
1.339844	1.614912
1.340332	1.614591
1.340820	1.614437
1.341309	1.614714
1.341797	1.614442
1.342285	1.614752
1.342773	1.614494
1.343262	1.614191
1.343750	1.614545
1.344238	1.614356
1.344727	1.614629
1.345215	1.614432
1.345703	1.614652
1.346191	1.614716
1.346680	1.614312
1.347168	1.614425
1.347656	1.614350
1.348145	1.614403
1.348633	1.614563
1.349121	1.614483
1.349609	1.614543
1.350098	1.614493
1.350586	1.614373
1.351074	1.614582
1.351562	1.614428
1.352051	1.614450
1.352539	1.614422
1.353027	1.614300
1.353516	1.614202
1.354004	1.614476
1.354492	1.614365
1.354980	1.614118
1.355469	1.614216
1.355957	1.614154
1.356445	1.614254
1.356934	1.614215
1.357422	1.614377
1.357910	1.614078
1.358398	1.614261
1.358887	1.614283
1.359375	1.614497
1.359863	1.614499
1.360352	1.614275
1.360840	1.614460
1.361328	1.614157
1.361816	1.614449
1.362305	1.614013
1.362793	1.614310
1.363281	1.614179
1.363770	1.614123
1.364258	1.614115
1.364746	1.614270
1.365234	1.614236
1.365723	1.614471
1.366211	1.614655
1.366699	1.614192
1.367187	1.614284
1.367676	1.614061
1.368164	1.614339
1.368652	1.614225
1.369141	1.614243
1.369629	1.613984
1.370117	1.614368
1.370605	1.614148
1.371094	1.614380
1.371582	1.614325
1.372070	1.614341
1.372559	1.614470
1.373047	1.614243
1.373535	1.614422
1.374023	1.614186
1.374512	1.614230
1.375000	1.614339
1.375488	1.614383
1.375977	1.614009
1.376465	1.614181
1.376953	1.614253
1.377441	1.614423
1.377930	1.614419
1.378418	1.614225
1.378906	1.614344
1.379395	1.614248
1.379883	1.614331
1.380371	1.614317
1.380859	1.614257
1.381348	1.614309
1.381836	1.614173
1.382324	1.614541
1.382812	1.614437
1.383301	1.614444
1.383789	1.614389
1.384277	1.614373
1.384766	1.614275
1.385254	1.614074
1.385742	1.614283
1.386230	1.614562
1.386719	1.614306
1.387207	1.614256
1.387695	1.614441
1.388184	1.614257
1.388672	1.614374
1.389160	1.614474
1.389648	1.614391
1.390137	1.614425
1.390625	1.614257
1.391113	1.614290
1.391602	1.614289
1.392090	1.614623
1.392578	1.614045
1.393066	1.614256
1.393555	1.614302
1.394043	1.614512
1.394531	1.614177
1.395020	1.614578
1.395508	1.614323
1.395996	1.614469
1.396484	1.614466
1.396973	1.614491
1.397461	1.614420
1.397949	1.614433
1.398437	1.614508
1.398926	1.614229
1.399414	1.614344
1.399902	1.614272
1.400391	1.614300
1.400879	1.614124
1.401367	1.614425
1.401855	1.613964
1.402344	1.614311
1.402832	1.614291
1.403320	1.614230
1.403809	1.614368
1.404297	1.614218
1.404785	1.614225
1.405273	1.614341
1.405762	1.614393
1.406250	1.614571
1.406738	1.614470
1.407227	1.614265
1.407715	1.614588
1.408203	1.614688
1.408691	1.614544
1.409180	1.614510
1.409668	1.614548
1.410156	1.614707
1.410645	1.614311
1.411133	1.614515
1.411621	1.614546
1.412109	1.614620
1.412598	1.614702
1.413086	1.614586
1.413574	1.614877
1.414062	1.614586
1.414551	1.614709
1.415039	1.614513
1.415527	1.614672
1.416016	1.614708
1.416504	1.614531
1.416992	1.614554
1.417480	1.614693
1.417969	1.614582
1.418457	1.614713
1.418945	1.614593
1.419434	1.614574
1.419922	1.614751
1.420410	1.614539
1.420898	1.614616
1.421387	1.614551
1.421875	1.614574
1.422363	1.614254
1.422852	1.614455
1.423340	1.614447
1.423828	1.614411
1.424316	1.614641
1.424805	1.614498
1.425293	1.614435
1.425781	1.614447
1.426270	1.614771
1.426758	1.614505
1.427246	1.614796
1.427734	1.614464
1.428223	1.614245
1.428711	1.614583
1.429199	1.614416
1.429687	1.614738
1.430176	1.614613
1.430664	1.614506
1.431152	1.614665
1.431641	1.614502
1.432129	1.614495
1.432617	1.614791
1.433105	1.614439
1.433594	1.614297
1.434082	1.614436
1.434570	1.614485
1.435059	1.614510
1.435547	1.614438
1.436035	1.614383
1.436523	1.614410
1.437012	1.614364
1.437500	1.614333
1.437988	1.614605
1.438477	1.614449
1.438965	1.614641
1.439453	1.614557
1.439941	1.614417
1.440430	1.614463
1.440918	1.614460
1.441406	1.614492
1.441895	1.614475
1.442383	1.614502
1.442871	1.614466
1.443359	1.614513
1.443848	1.614579
1.444336	1.614517
1.444824	1.614360
1.445312	1.614397
1.445801	1.614554
1.446289	1.614454
1.446777	1.614358
1.447266	1.614641
1.447754	1.614272
1.448242	1.614242
1.448730	1.614243
1.449219	1.614125
1.449707	1.614458
1.450195	1.614437
1.450684	1.614301
1.451172	1.614288
1.451660	1.614348
1.452148	1.614451
1.452637	1.614605
1.453125	1.614341
1.453613	1.614643
1.454102	1.614375
1.454590	1.614449
1.455078	1.614489
1.455566	1.614477
1.456055	1.614571
1.456543	1.614361
1.457031	1.614484
1.457520	1.614320
1.458008	1.614582
1.458496	1.614525
1.458984	1.614620
1.459473	1.614688
1.459961	1.614788
1.460449	1.614502
1.460937	1.614870
1.461426	1.614806
1.461914	1.614333
1.462402	1.614518
1.462891	1.614159
1.463379	1.614549
1.463867	1.614299
1.464355	1.614832
1.464844	1.614638
1.465332	1.614361
1.465820	1.614355
1.466309	1.614506
1.466797	1.614493
1.467285	1.614442
1.467773	1.614359
1.468262	1.614353
1.468750	1.614572
1.469238	1.614375
1.469727	1.614825
1.470215	1.614669
1.470703	1.614452
1.471191	1.614734
1.471680	1.614654
1.472168	1.614646
1.472656	1.614783
1.473145	1.614850
1.473633	1.614218
1.474121	1.614561
1.474609	1.614336
1.475098	1.614640
1.475586	1.614625
1.476074	1.614567
1.476562	1.614588
1.477051	1.614499
1.477539	1.614536
1.478027	1.614364
1.478516	1.614617
1.479004	1.614478
1.479492	1.614317
1.479980	1.614430
1.480469	1.614273
1.480957	1.614547
1.481445	1.614417
1.481934	1.614261
1.482422	1.614395
1.482910	1.614021
1.483398	1.614092
1.483887	1.614245
1.484375	1.614240
1.484863	1.614367
1.485352	1.614296
1.485840	1.614216
1.486328	1.614201
1.486816	1.614405
1.487305	1.614245
1.487793	1.614438
1.488281	1.614085
1.488770	1.614084
1.489258	1.614213
1.489746	1.614295
1.490234	1.614584
1.490723	1.614298
1.491211	1.614485
1.491699	1.614110
1.492187	1.614110
1.492676	1.614284
1.493164	1.614185
1.493652	1.614217
1.494141	1.614140
1.494629	1.614287
1.495117	1.614334
1.495605	1.614037
1.496094	1.614231
1.496582	1.614450
1.497070	1.614200
1.497559	1.614026
1.498047	1.614287
1.498535	1.614280
1.499023	1.614275
1.499512	1.614116
1.500000	1.614148
1.500488	1.614016
1.500977	1.614049
1.501465	1.614319
1.501953	1.614045
1.502441	1.614163
1.502930	1.614401
1.503418	1.613947
1.503906	1.614530
1.504395	1.614210
1.504883	1.614070
1.505371	1.614398
1.505859	1.614053
1.506348	1.614269
1.506836	1.614319
1.507324	1.614395
1.507812	1.614391
1.508301	1.614641
1.508789	1.614253
1.509277	1.614622
1.509766	1.614674
1.510254	1.614716
1.510742	1.614551
1.511230	1.614521
1.511719	1.614484
1.512207	1.614388
1.512695	1.614359
1.513184	1.614247
1.513672	1.614443
1.514160	1.614378
1.514648	1.614187
1.515137	1.614364
1.515625	1.614354
1.516113	1.614179
1.516602	1.614584
1.517090	1.614261
1.517578	1.614230
1.518066	1.614324
1.518555	1.614378
1.519043	1.614214
1.519531	1.614585
1.520020	1.614300
1.520508	1.614073
1.520996	1.614294
1.521484	1.614042
1.521973	1.614499
1.522461	1.614298
1.522949	1.614380
1.523437	1.614169
1.523926	1.614189
1.524414	1.614216
1.524902	1.614175
1.525391	1.614306
1.525879	1.614089
1.526367	1.614052
1.526855	1.613826
1.527344	1.614175
1.527832	1.614009
1.528320	1.614236
1.528809	1.614052
1.529297	1.614086
1.529785	1.614270
1.530273	1.613926
1.530762	1.614196
1.531250	1.613904
1.531738	1.614029
1.532227	1.614024
1.532715	1.614020
1.533203	1.614335
1.533691	1.613999
1.534180	1.613961
1.534668	1.614154
1.535156	1.613757
1.535645	1.613829
1.536133	1.614104
1.536621	1.614021
1.537109	1.613961
1.537598	1.614273
1.538086	1.614063
1.538574	1.614212
1.539062	1.614204
1.539551	1.614283
1.540039	1.614264
1.540527	1.614254
1.541016	1.614150
1.541504	1.614167
1.541992	1.614197
1.542480	1.614188
1.542969	1.614360
1.543457	1.614006
1.543945	1.614212
1.544434	1.614211
1.544922	1.614171
1.545410	1.614029
1.545898	1.614055
1.546387	1.614081
1.546875	1.613912
1.547363	1.614068
1.547852	1.613766
1.548340	1.614161
1.548828	1.613944
1.549316	1.614118
1.549805	1.613902
1.550293	1.614031
1.550781	1.614331
1.551270	1.614009
1.551758	1.614266
1.552246	1.614003
1.552734	1.613916
1.553223	1.613969
1.553711	1.614209
1.554199	1.614258
1.554687	1.614067
1.555176	1.614270
1.555664	1.614016
1.556152	1.614148
1.556641	1.614150
1.557129	1.614283
1.557617	1.614228
1.558105	1.613904
1.558594	1.614331
1.559082	1.614209
1.559570	1.614235
1.560059	1.614395
1.560547	1.614245
1.561035	1.614229
1.561523	1.614096
1.562012	1.614275
1.562500	1.614473
1.562988	1.614331
1.563477	1.614328
1.563965	1.614244
1.564453	1.614416
1.564941	1.614358
1.565430	1.614681
1.565918	1.614334
1.566406	1.614319
1.566895	1.614281
1.567383	1.614345
1.567871	1.614332
1.568359	1.614212
1.568848	1.614369
1.569336	1.614141
1.569824	1.614171
1.570312	1.614309
1.570801	1.614098
1.571289	1.614511
1.571777	1.614367
1.572266	1.614405
1.572754	1.614535
1.573242	1.614284
1.573730	1.614493
1.574219	1.614653
1.574707	1.614636
1.575195	1.614477
1.575684	1.614511
1.576172	1.614527
1.576660	1.614419
1.577148	1.614564
1.577637	1.614362
1.578125	1.614383
1.578613	1.614198
1.579102	1.614146
1.579590	1.614272
1.580078	1.614467
1.580566	1.614216
1.581055	1.614253
1.581543	1.614193
1.582031	1.614115
1.582520	1.614192
1.583008	1.613971
1.583496	1.614511
1.583984	1.614269
1.584473	1.614210
1.584961	1.614085
1.585449	1.614168
1.585937	1.614361
1.586426	1.614372
1.586914	1.614275
1.587402	1.614327
1.587891	1.614085
1.588379	1.614330
1.588867	1.614286
1.589355	1.614258
1.589844	1.614289
1.590332	1.614264
1.590820	1.614135
1.591309	1.614228
1.591797	1.614353
1.592285	1.614302
1.592773	1.614450
1.593262	1.614082
1.593750	1.614177
1.594238	1.614208
1.594727	1.614332
1.595215	1.614262
1.595703	1.614095
1.596191	1.614422
1.596680	1.614270
1.597168	1.614366
1.597656	1.614461
1.598145	1.614313
1.598633	1.614364
1.599121	1.613906
1.599609	1.614303
1.600098	1.614378
1.600586	1.614383
1.601074	1.614081
1.601562	1.614225
1.602051	1.614181
1.602539	1.614371
1.603027	1.614530
1.603516	1.614202
1.604004	1.614403
1.604492	1.614212
1.604980	1.614195
1.605469	1.614358
1.605957	1.614489
1.606445	1.614438
1.606934	1.614526
1.607422	1.614433
1.607910	1.614644
1.608398	1.614510
1.608887	1.614738
1.609375	1.614860
1.609863	1.614639
1.610352	1.614705
1.610840	1.614845
1.611328	1.614727
1.611816	1.614624
1.612305	1.614665
1.612793	1.614321
1.613281	1.614520
1.613770	1.614337
1.614258	1.614581
1.614746	1.614596
1.615234	1.614334
1.615723	1.614496
1.616211	1.614071
1.616699	1.614522
1.617187	1.614394
1.617676	1.614287
1.618164	1.614395
1.618652	1.614636
1.619141	1.614296
1.619629	1.614716
1.620117	1.614826
1.620605	1.614579
1.621094	1.614914
1.621582	1.614658
1.622070	1.614771
1.622559	1.614514
1.623047	1.614732
1.623535	1.614794
1.624023	1.614860
1.624512	1.614633
1.625000	1.614724
1.625488	1.614433
1.625977	1.614738
1.626465	1.614649
1.626953	1.614613
1.627441	1.614489
1.627930	1.614521
1.628418	1.614492
1.628906	1.614685
1.629395	1.614637
1.629883	1.614727
1.630371	1.614704
1.630859	1.614585
1.631348	1.614603
1.631836	1.614832
1.632324	1.614700
1.632812	1.614693
1.633301	1.614586
1.633789	1.614710
1.634277	1.614544
1.634766	1.614731
1.635254	1.614655
1.635742	1.614718
1.636230	1.614596
1.636719	1.614374
1.637207	1.614538
1.637695	1.614537
1.638184	1.614629
1.638672	1.614577
1.639160	1.614700
1.639648	1.614789
1.640137	1.614691
1.640625	1.614607
1.641113	1.614643
1.641602	1.614710
1.642090	1.614424
1.642578	1.614579
1.643066	1.614546
1.643555	1.614797
1.644043	1.614633
1.644531	1.614358
1.645020	1.614607
1.645508	1.614284
1.645996	1.614662
1.646484	1.614474
1.646973	1.614500
1.647461	1.614699
1.647949	1.614576
1.648437	1.614337
1.648926	1.614686
1.649414	1.614910
1.649902	1.614635
1.650391	1.614711
1.650879	1.614419
1.651367	1.614555
1.651855	1.614436
1.652344	1.614776
1.652832	1.614803
1.653320	1.614624
1.653809	1.614426
1.654297	1.614687
1.654785	1.614425
1.655273	1.614666
1.655762	1.614801
1.656250	1.614738
1.656738	1.614739
1.657227	1.614517
1.657715	1.614570
1.658203	1.614725
1.658691	1.614882
1.659180	1.614542
1.659668	1.614744
1.660156	1.614566
1.660645	1.614533
1.661133	1.614438
1.661621	1.614677
1.662109	1.614146
1.662598	1.614385
1.663086	1.614602
1.663574	1.614494
1.664062	1.614773
1.664551	1.614470
1.665039	1.614389
1.665527	1.614330
1.666016	1.614221
1.666504	1.614465
1.666992	1.614411
1.667480	1.614353
1.667969	1.614392
1.668457	1.614500
1.668945	1.614322
1.669434	1.614366
1.669922	1.614641
1.670410	1.614574
1.670898	1.614192
1.671387	1.614480
1.671875	1.614508
1.672363	1.614438
1.672852	1.614751
1.673340	1.614588
1.673828	1.614666
1.674316	1.614619
1.674805	1.614598
1.675293	1.614619
1.675781	1.614683
1.676270	1.614640
1.676758	1.614764
1.677246	1.614443
1.677734	1.614427
1.678223	1.614510
1.678711	1.614482
1.679199	1.614692
1.679687	1.614352
1.680176	1.614581
1.680664	1.614367
1.681152	1.614507
1.681641	1.614388
1.682129	1.614499
1.682617	1.614380
1.683105	1.614292
1.683594	1.614353
1.684082	1.614261
1.684570	1.614505
1.685059	1.614315
1.685547	1.614372
1.686035	1.614209
1.686523	1.614418
1.687012	1.614449
1.687500	1.614557
1.687988	1.614476
1.688477	1.614165
1.688965	1.614300
1.689453	1.614431
1.689941	1.614508
1.690430	1.614712
1.690918	1.614352
1.691406	1.614440
1.691895	1.614527
1.692383	1.614563
1.692871	1.614439
1.693359	1.614256
1.693848	1.614546
1.694336	1.614281
1.694824	1.614272
1.695312	1.614418
1.695801	1.614441
1.696289	1.614369
1.696777	1.614621
1.697266	1.614444
1.697754	1.614582
1.698242	1.614523
1.698730	1.614773
1.699219	1.614610
1.699707	1.614690
1.700195	1.614677
1.700684	1.614559
1.701172	1.614849
1.701660	1.614872
1.702148	1.614911
1.702637	1.614601
1.703125	1.614816
1.703613	1.614645
1.704102	1.615111
1.704590	1.614873
1.705078	1.614748
1.705566	1.614696
1.706055	1.614642
1.706543	1.614730
1.707031	1.614766
1.707520	1.614903
1.708008	1.614667
1.708496	1.614959
1.708984	1.614782
1.709473	1.614929
1.709961	1.614754
1.710449	1.615103
1.710937	1.614871
1.711426	1.614941
1.711914	1.614825
1.712402	1.614687
1.712891	1.614990
1.713379	1.614799
1.713867	1.614718
1.714355	1.614569
1.714844	1.614782
1.715332	1.614591
1.715820	1.614914
1.716309	1.614607
1.716797	1.614737
1.717285	1.614814
1.717773	1.614909
1.718262	1.614704
1.718750	1.615228
1.719238	1.614945
1.719727	1.615227
1.720215	1.615194
1.720703	1.615038
1.721191	1.615059
1.721680	1.615142
1.722168	1.614910
1.722656	1.614950
1.723145	1.614951
1.723633	1.614912
1.724121	1.615161
1.724609	1.615098
1.725098	1.615476
1.725586	1.615154
1.726074	1.615105
1.726562	1.615308
1.727051	1.615253
1.727539	1.615145
1.728027	1.615027
1.728516	1.615089
1.729004	1.615052
1.729492	1.615033
1.729980	1.615029
1.730469	1.615262
1.730957	1.615042
1.731445	1.615150
1.731934	1.615073
1.732422	1.615241
1.732910	1.614892
1.733398	1.615204
1.733887	1.615155
1.734375	1.615099
1.734863	1.615070
1.735352	1.614951
1.735840	1.615140
1.736328	1.615102
1.736816	1.615396
1.737305	1.615064
1.737793	1.615076
1.738281	1.615302
1.738770	1.615197
1.739258	1.615169
1.739746	1.615067
1.740234	1.615096
1.740723	1.614778
1.741211	1.615133
1.741699	1.615075
1.742187	1.615144
1.742676	1.615106
1.743164	1.615056
1.743652	1.615392
1.744141	1.614848
1.744629	1.615079
1.745117	1.615033
1.745605	1.615097
1.746094	1.615150
1.746582	1.614993
1.747070	1.615203
1.747559	1.615129
1.748047	1.615062
1.748535	1.615123
1.749023	1.615012
1.749512	1.615000
1.750000	1.614954
1.750488	1.615045
1.750977	1.615001
1.751465	1.614984
1.751953	1.614986
1.752441	1.615070
1.752930	1.614812
1.753418	1.615015
1.753906	1.615034
1.754395	1.615116
1.754883	1.614863
1.755371	1.615103
1.755859	1.614912
1.756348	1.614778
1.756836	1.615084
1.757324	1.614691
1.757812	1.614657
1.758301	1.614621
1.758789	1.614798
1.759277	1.614640
1.759766	1.615002
1.760254	1.614762
1.760742	1.614893
1.761230	1.614847
1.761719	1.614770
1.762207	1.614795
1.762695	1.614729
1.763184	1.614577
1.763672	1.614334
1.764160	1.614749
1.764648	1.614878
1.765137	1.614795
1.765625	1.614749
1.766113	1.614605
1.766602	1.614730
1.767090	1.614723
1.767578	1.614746
1.768066	1.614812
1.768555	1.614622
1.769043	1.614820
1.769531	1.614659
1.770020	1.614783
1.770508	1.614829
1.770996	1.614532
1.771484	1.614888
1.771973	1.614915
1.772461	1.614757
1.772949	1.614667
1.773437	1.614749
1.773926	1.614786
1.774414	1.614576
1.774902	1.614553
1.775391	1.614602
1.775879	1.614833
1.776367	1.614600
1.776855	1.614817
1.777344	1.614959
1.777832	1.614740
1.778320	1.615098
1.778809	1.614771
1.779297	1.614836
1.779785	1.614927
1.780273	1.615063
1.780762	1.614721
1.781250	1.614891
1.781738	1.614626
1.782227	1.614674
1.782715	1.614622
1.783203	1.614677
1.783691	1.614384
1.784180	1.614541
1.784668	1.614749
1.785156	1.614793
1.785645	1.614538
1.786133	1.614790
1.786621	1.614757
1.787109	1.614778
1.787598	1.614902
1.788086	1.614806
1.788574	1.614784
1.789062	1.615092
1.789551	1.614934
1.790039	1.614783
1.790527	1.614962
1.791016	1.614910
1.791504	1.614964
1.791992	1.614857
1.792480	1.614904
1.792969	1.614413
1.793457	1.614882
1.793945	1.615036
1.794434	1.614941
1.794922	1.614813
1.795410	1.614916
1.795898	1.614893
1.796387	1.614899
1.796875	1.615169
1.797363	1.614932
1.797852	1.615030
1.798340	1.614879
1.798828	1.614997
1.799316	1.615119
1.799805	1.615177
1.800293	1.615436
1.800781	1.615078
1.801270	1.615010
1.801758	1.615037
1.802246	1.615023
1.802734	1.615148
1.803223	1.615040
1.803711	1.615153
1.804199	1.615169
1.804687	1.615161
1.805176	1.615260
1.805664	1.615245
1.806152	1.615180
1.806641	1.615450
1.807129	1.615164
1.807617	1.615111
1.808105	1.615295
1.808594	1.615145
1.809082	1.615386
1.809570	1.615268
1.810059	1.615346
1.810547	1.615391
1.811035	1.615416
1.811523	1.615375
1.812012	1.615479
1.812500	1.615310
1.812988	1.615056
1.813477	1.615305
1.813965	1.615357
1.814453	1.615464
1.814941	1.615202
1.815430	1.615328
1.815918	1.615157
1.816406	1.615456
1.816895	1.615395
1.817383	1.615358
1.817871	1.615446
1.818359	1.615353
1.818848	1.615404
1.819336	1.615733
1.819824	1.615591
1.820312	1.615777
1.820801	1.615727
1.821289	1.615646
1.821777	1.615696
1.822266	1.615822
1.822754	1.615678
1.823242	1.615482
1.823730	1.615472
1.824219	1.615731
1.824707	1.615576
1.825195	1.615758
1.825684	1.615521
1.826172	1.615855
1.826660	1.615664
1.827148	1.615680
1.827637	1.615474
1.828125	1.615571
1.828613	1.615828
1.829102	1.615696
1.829590	1.615638
1.830078	1.615725
1.830566	1.615894
1.831055	1.615572
1.831543	1.615845
1.832031	1.615579
1.832520	1.615842
1.833008	1.615445
1.833496	1.615695
1.833984	1.615554
1.834473	1.615709
1.834961	1.615786
1.835449	1.615651
1.835937	1.615487
1.836426	1.615595
1.836914	1.615771
1.837402	1.615929
1.837891	1.616075
1.838379	1.615840
1.838867	1.615759
1.839355	1.615496
1.839844	1.615966
1.840332	1.615732
1.840820	1.615719
1.841309	1.615859
1.841797	1.615734
1.842285	1.615648
1.842773	1.615706
1.843262	1.615639
1.843750	1.615669
1.844238	1.615227
1.844727	1.615879
1.845215	1.615792
1.845703	1.615703
1.846191	1.615647
1.846680	1.616059
1.847168	1.615699
1.847656	1.615618
1.848145	1.615778
1.848633	1.615687
1.849121	1.615740
1.849609	1.615684
1.850098	1.615767
1.850586	1.615532
1.851074	1.615477
1.851562	1.615743
1.852051	1.615585
1.852539	1.615669
1.853027	1.615270
1.853516	1.615368
1.854004	1.615347
1.854492	1.615299
1.854980	1.615447
1.855469	1.615273
1.855957	1.615171
1.856445	1.615164
1.856934	1.615347
1.857422	1.615277
1.857910	1.615117
1.858398	1.614912
1.858887	1.615127
1.859375	1.615275
1.859863	1.614987
1.860352	1.615364
1.860840	1.615151
1.861328	1.615069
1.861816	1.615026
1.862305	1.614953
1.862793	1.615123
1.863281	1.614774
1.863770	1.615096
1.864258	1.615232
1.864746	1.615004
1.865234	1.615064
1.865723	1.615085
1.866211	1.615146
1.866699	1.615076
1.867187	1.614895
1.867676	1.615016
1.868164	1.614975
1.868652	1.614966
1.869141	1.614876
1.869629	1.615189
1.870117	1.615092
1.870605	1.615270
1.871094	1.615010
1.871582	1.615148
1.872070	1.614971
1.872559	1.615050
1.873047	1.614920
1.873535	1.614857
1.874023	1.615228
1.874512	1.615037
1.875000	1.615125
1.875488	1.615104
1.875977	1.614822
1.876465	1.615032
1.876953	1.614835
1.877441	1.615083
1.877930	1.615287
1.878418	1.614890
1.878906	1.614873
1.879395	1.615020
1.879883	1.615241
1.880371	1.614779
1.880859	1.614884
1.881348	1.615305
1.881836	1.614989
1.882324	1.615269
1.882812	1.615183
1.883301	1.615115
1.883789	1.615205
1.884277	1.615041
1.884766	1.615137
1.885254	1.615296
1.885742	1.615079
1.886230	1.615374
1.886719	1.615119
1.887207	1.615209
1.887695	1.615084
1.888184	1.615116
1.888672	1.615012
1.889160	1.615341
1.889648	1.615268
1.890137	1.615337
1.890625	1.615167
1.891113	1.615244
1.891602	1.615364
1.892090	1.615355
1.892578	1.615288
1.893066	1.615305
1.893555	1.615337
1.894043	1.615166
1.894531	1.615131
1.895020	1.615337
1.895508	1.615249
1.895996	1.615197
1.896484	1.615040
1.896973	1.615256
1.897461	1.615108
1.897949	1.615223
1.898437	1.615366
1.898926	1.615282
1.899414	1.615366
1.899902	1.615461
1.900391	1.615501
1.900879	1.615471
1.901367	1.615613
1.901855	1.615410
1.902344	1.615284
1.902832	1.615204
1.903320	1.615275
1.903809	1.615458
1.904297	1.615380
1.904785	1.615397
1.905273	1.615322
1.905762	1.615130
1.906250	1.615363
1.906738	1.615372
1.907227	1.615201
1.907715	1.615132
1.908203	1.615102
1.908691	1.615277
1.909180	1.615115
1.909668	1.615512
1.910156	1.615313
1.910645	1.615306
1.911133	1.615037
1.911621	1.615516
1.912109	1.615436
1.912598	1.615264
1.913086	1.615192
1.913574	1.615200
1.914062	1.615263
1.914551	1.615108
1.915039	1.615123
1.915527	1.615493
1.916016	1.615131
1.916504	1.615070
1.916992	1.615402
1.917480	1.615259
1.917969	1.615393
1.918457	1.615326
1.918945	1.615300
1.919434	1.615360
1.919922	1.615228
1.920410	1.615241
1.920898	1.615295
1.921387	1.615432
1.921875	1.615412
1.922363	1.615544
1.922852	1.615367
1.923340	1.615344
1.923828	1.615397
1.924316	1.615338
1.924805	1.615526
1.925293	1.615325
1.925781	1.615330
1.926270	1.615424
1.926758	1.615579
1.927246	1.615346
1.927734	1.615630
1.928223	1.615357
1.928711	1.615371
1.929199	1.615432
1.929687	1.615508
1.930176	1.615341
1.930664	1.615194
1.931152	1.615425
1.931641	1.615205
1.932129	1.615362
1.932617	1.615515
1.933105	1.615219
1.933594	1.615261
1.934082	1.615361
1.934570	1.615333
1.935059	1.615600
1.935547	1.615646
1.936035	1.615378
1.936523	1.615474
1.937012	1.615177
1.937500	1.615545
1.937988	1.615474
1.938477	1.615544
1.938965	1.615712
1.939453	1.615430
1.939941	1.615363
1.940430	1.615190
1.940918	1.615492
1.941406	1.615347
1.941895	1.614967
1.942383	1.615194
1.942871	1.615186
1.943359	1.615177
1.943848	1.615084
1.944336	1.615441
1.944824	1.615117
1.945312	1.615451
1.945801	1.615213
1.946289	1.615136
1.946777	1.615076
1.947266	1.615317
1.947754	1.615280
1.948242	1.615234
1.948730	1.615007
1.949219	1.615283
1.949707	1.615171
1.950195	1.615269
1.950684	1.615200
1.951172	1.615081
1.951660	1.615053
1.952148	1.615155
1.952637	1.615042
1.953125	1.614984
1.953613	1.614968
1.954102	1.614882
1.954590	1.615137
1.955078	1.615003
1.955566	1.615094
1.956055	1.614815
1.956543	1.614942
1.957031	1.614658
1.957520	1.614675
1.958008	1.614854
1.958496	1.614931
1.958984	1.614807
1.959473	1.614777
1.959961	1.614483
1.960449	1.614953
1.960937	1.614525
1.961426	1.614791
1.961914	1.614824
1.962402	1.614959
1.962891	1.614447
1.963379	1.614837
1.963867	1.614727
1.964355	1.615050
1.964844	1.615205
1.965332	1.614785
1.965820	1.614813
1.966309	1.614666
1.966797	1.615030
1.967285	1.614828
1.967773	1.614981
1.968262	1.614525
1.968750	1.614807
1.969238	1.614738
1.969727	1.615149
1.970215	1.614896
1.970703	1.614966
1.971191	1.615031
1.971680	1.614910
1.972168	1.614965
1.972656	1.614975
1.973145	1.615000
1.973633	1.615018
1.974121	1.615049
1.974609	1.614728
1.975098	1.614893
1.975586	1.614707
1.976074	1.615029
1.976562	1.614731
1.977051	1.614824
1.977539	1.614907
1.978027	1.614912
1.978516	1.614915
1.979004	1.615085
1.979492	1.614885
1.979980	1.615043
1.980469	1.614997
1.980957	1.615147
1.981445	1.615089
1.981934	1.614992
1.982422	1.615141
1.982910	1.614853
1.983398	1.615224
1.983887	1.614987
1.984375	1.615148
1.984863	1.615096
1.985352	1.615274
1.985840	1.615023
1.986328	1.615322
1.986816	1.615208
1.987305	1.615212
1.987793	1.615333
1.988281	1.615421
1.988770	1.615068
1.989258	1.615118
1.989746	1.615385
1.990234	1.615316
1.990723	1.615405
1.991211	1.615557
1.991699	1.615384
1.992187	1.615420
1.992676	1.615258
1.993164	1.615363
1.993652	1.615425
1.994141	1.615240
1.994629	1.615634
1.995117	1.615591
1.995605	1.615486
1.996094	1.615566
1.996582	1.615771
1.997070	1.615485
1.997559	1.615548
1.998047	1.615461
1.998535	1.615581
1.999023	1.615446
1.999512	1.615746
2.000000	1.615229
2.000488	1.615369
2.000977	1.615280
2.001465	1.615358
2.001953	1.615261
2.002441	1.615355
2.002930	1.615301
2.003418	1.615225
2.003906	1.615519
2.004395	1.615360
2.004883	1.615590
2.005371	1.615488
2.005859	1.615429
2.006348	1.615290
2.006836	1.615347
2.007324	1.615535
2.007812	1.615695
2.008301	1.615363
2.008789	1.615476
2.009277	1.615243
2.009766	1.615626
2.010254	1.615636
2.010742	1.615453
2.011230	1.615731
2.011719	1.615566
2.012207	1.615204
2.012695	1.615438
2.013184	1.615131
2.013672	1.615628
2.014160	1.615473
2.014648	1.615388
2.015137	1.615365
2.015625	1.615078
2.016113	1.615392
2.016602	1.615478
2.017090	1.615529
2.017578	1.615321
2.018066	1.615384
2.018555	1.615331
2.019043	1.615645
2.019531	1.615525
2.020020	1.615707
2.020508	1.615519
2.020996	1.615387
2.021484	1.615748
2.021973	1.615120
2.022461	1.615378
2.022949	1.615382
2.023437	1.615182
2.023926	1.615201
2.024414	1.615219
2.024902	1.615663
2.025391	1.615521
2.025879	1.615057
2.026367	1.615359
2.026855	1.615156
2.027344	1.615288
2.027832	1.615353
2.028320	1.615345
2.028809	1.615195
2.029297	1.615206
2.029785	1.615266
2.030273	1.615201
2.030762	1.615363
2.031250	1.615334
2.031738	1.615118
2.032227	1.615078
2.032715	1.615246
2.033203	1.614990
2.033691	1.615227
2.034180	1.615337
2.034668	1.615162
2.035156	1.615543
2.035645	1.615311
2.036133	1.615418
2.036621	1.615257
2.037109	1.615308
2.037598	1.615202
2.038086	1.615234
2.038574	1.615223
2.039062	1.615341
2.039551	1.615228
2.040039	1.615385
2.040527	1.615148
2.041016	1.615122
2.041504	1.615139
2.041992	1.615380
2.042480	1.615205
2.042969	1.615076
2.043457	1.615066
2.043945	1.615125
2.044434	1.615100
2.044922	1.615094
2.045410	1.615177
2.045898	1.615000
2.046387	1.614953
2.046875	1.614841
2.047363	1.614840
2.047852	1.615057
2.048340	1.614885
2.048828	1.614723
2.049316	1.614763
2.049805	1.614701
2.050293	1.614892
2.050781	1.614683
2.051270	1.615009
2.051758	1.615092
2.052246	1.614458
2.052734	1.614787
2.053223	1.614477
2.053711	1.614591
2.054199	1.614511
2.054687	1.614501
2.055176	1.614635
2.055664	1.614627
2.056152	1.614576
2.056641	1.614843
2.057129	1.614668
2.057617	1.614610
2.058105	1.614589
2.058594	1.614371
2.059082	1.614621
2.059570	1.614825
2.060059	1.614633
2.060547	1.614408
2.061035	1.614666
2.061523	1.614247
2.062012	1.614407
2.062500	1.614359
2.062988	1.614627
2.063477	1.614294
2.063965	1.614459
2.064453	1.614341
2.064941	1.614619
2.065430	1.614396
2.065918	1.614654
2.066406	1.614334
2.066895	1.614649
2.067383	1.614519
2.067871	1.614643
2.068359	1.614397
2.068848	1.614516
2.069336	1.614412
2.069824	1.614392
2.070312	1.614419
2.070801	1.614478
2.071289	1.614506
2.071777	1.614445
2.072266	1.614365
2.072754	1.614322
2.073242	1.614565
2.073730	1.614501
2.074219	1.614478
2.074707	1.614522
2.075195	1.614535
2.075684	1.614471
2.076172	1.614538
2.076660	1.614369
2.077148	1.614808
2.077637	1.614367
2.078125	1.614286
2.078613	1.614491
2.079102	1.614424
2.079590	1.614552
2.080078	1.614524
2.080566	1.614782
2.081055	1.614659
2.081543	1.614123
2.082031	1.614615
2.082520	1.614320
2.083008	1.614536
2.083496	1.614450
2.083984	1.614397
2.084473	1.614522
2.084961	1.614630
2.085449	1.614535
2.085937	1.614433
2.086426	1.614564
2.086914	1.614630
2.087402	1.614474
2.087891	1.614526
2.088379	1.614659
2.088867	1.614470
2.089355	1.614715
2.089844	1.614743
2.090332	1.614611
2.090820	1.614547
2.091309	1.614660
2.091797	1.614624
2.092285	1.614752
2.092773	1.614445
2.093262	1.614308
2.093750	1.614494
2.094238	1.614535
2.094727	1.614529
2.095215	1.614568
2.095703	1.614341
2.096191	1.614631
2.096680	1.614773
2.097168	1.614733
2.097656	1.614673
2.098145	1.614678
2.098633	1.614746
2.099121	1.615208
2.099609	1.614818
2.100098	1.615015
2.100586	1.614760
2.101074	1.615020
2.101562	1.614710
2.102051	1.614719
2.102539	1.614662
2.103027	1.614784
2.103516	1.614840
2.104004	1.614857
2.104492	1.614724
2.104980	1.614695
2.105469	1.614879
2.105957	1.614937
2.106445	1.614824
2.106934	1.614774
2.107422	1.614728
2.107910	1.614948
2.108398	1.615093
2.108887	1.614838
2.109375	1.614937
2.109863	1.615010
2.110352	1.614975
2.110840	1.614929
2.111328	1.614997
2.111816	1.614610
2.112305	1.614877
2.112793	1.614737
2.113281	1.614873
2.113770	1.614618
2.114258	1.614772
2.114746	1.614828
2.115234	1.614829
2.115723	1.614806
2.116211	1.614738
2.116699	1.614889
2.117187	1.615022
2.117676	1.614966
2.118164	1.614908
2.118652	1.614842
2.119141	1.614499
2.119629	1.614919
2.120117	1.615004
2.120605	1.614824
2.121094	1.614750
2.121582	1.614832
2.122070	1.615120
2.122559	1.614533
2.123047	1.614646
2.123535	1.614707
2.124023	1.614621
2.124512	1.614750
2.125000	1.614538
2.125488	1.614957
2.125977	1.614723
2.126465	1.614608
2.126953	1.614948
2.127441	1.614400
2.127930	1.614660
2.128418	1.614596
2.128906	1.614853
2.129395	1.615033
2.129883	1.614829
2.130371	1.614694
2.130859	1.614475
2.131348	1.614839
2.131836	1.614710
2.132324	1.614840
2.132812	1.614575
2.133301	1.614615
2.133789	1.614625
2.134277	1.614748
2.134766	1.614693
2.135254	1.614721
2.135742	1.614612
2.136230	1.614560
2.136719	1.614615
2.137207	1.614643
2.137695	1.614677
2.138184	1.614723
2.138672	1.614517
2.139160	1.614600
2.139648	1.614453
2.140137	1.614381
2.140625	1.614453
2.141113	1.614640
2.141602	1.614535
2.142090	1.614456
2.142578	1.614608
2.143066	1.614752
2.143555	1.614295
2.144043	1.614441
2.144531	1.614255
2.145020	1.614342
2.145508	1.614345
2.145996	1.614633
2.146484	1.614439
2.146973	1.614478
2.147461	1.614372
2.147949	1.614558
2.148437	1.614570
2.148926	1.614479
2.149414	1.614707
2.149902	1.614602
2.150391	1.614599
2.150879	1.614462
2.151367	1.614427
2.151855	1.614623
2.152344	1.614456
2.152832	1.614628
2.153320	1.614515
2.153809	1.614101
2.154297	1.614505
2.154785	1.614507
2.155273	1.614680
2.155762	1.614691
2.156250	1.614580
2.156738	1.614787
2.157227	1.614545
2.157715	1.614672
2.158203	1.614622
2.158691	1.614623
2.159180	1.614677
2.159668	1.614729
2.160156	1.614721
2.160645	1.614707
2.161133	1.614706
2.161621	1.614842
2.162109	1.614848
2.162598	1.614580
2.163086	1.614757
2.163574	1.614803
2.164062	1.614791
2.164551	1.614613
2.165039	1.614816
2.165527	1.614516
2.166016	1.614607
2.166504	1.614982
2.166992	1.614975
2.167480	1.614461
2.167969	1.614720
2.168457	1.614775
2.168945	1.614853
2.169434	1.614935
2.169922	1.615020
2.170410	1.614699
2.170898	1.614844
2.171387	1.614951
2.171875	1.614719
2.172363	1.614654
2.172852	1.614937
2.173340	1.614834
2.173828	1.614866
2.174316	1.614853
2.174805	1.614866
2.175293	1.614869
2.175781	1.615239
2.176270	1.614913
2.176758	1.614784
2.177246	1.614837
2.177734	1.615013
2.178223	1.614928
2.178711	1.615029
2.179199	1.614837
2.179687	1.614893
2.180176	1.614851
2.180664	1.614818
2.181152	1.615067
2.181641	1.614757
2.182129	1.614756
2.182617	1.614825
2.183105	1.614611
2.183594	1.614608
2.184082	1.614568
2.184570	1.614550
2.185059	1.615047
2.185547	1.614704
2.186035	1.614688
2.186523	1.614492
2.187012	1.614824
2.187500	1.614692
2.187988	1.614530
2.188477	1.614548
2.188965	1.614622
2.189453	1.614705
2.189941	1.614686
2.190430	1.614628
2.190918	1.614577
2.191406	1.614585
2.191895	1.614483
2.192383	1.614555
2.192871	1.614424
2.193359	1.614356
2.193848	1.614178
2.194336	1.614331
2.194824	1.614467
2.195312	1.614253
2.195801	1.614625
2.196289	1.614581
2.196777	1.614275
2.197266	1.614263
2.197754	1.614348
2.198242	1.614543
2.198730	1.614330
2.199219	1.614709
2.199707	1.614677
2.200195	1.614539
2.200684	1.614533
2.201172	1.614519
2.201660	1.614654
2.202148	1.614735
2.202637	1.614534
2.203125	1.614463
2.203613	1.614514
2.204102	1.614158
2.204590	1.614367
2.205078	1.614555
2.205566	1.614389
2.206055	1.614384
2.206543	1.614300
2.207031	1.614219
2.207520	1.614202
2.208008	1.614217
2.208496	1.614251
2.208984	1.614072
2.209473	1.614466
2.209961	1.614437
2.210449	1.614434
2.210937	1.614268
2.211426	1.614503
2.211914	1.614370
2.212402	1.614795
2.212891	1.614418
2.213379	1.614263
2.213867	1.614433
2.214355	1.614317
2.214844	1.614421
2.215332	1.614524
2.215820	1.614555
2.216309	1.614544
2.216797	1.614436
2.217285	1.614400
2.217773	1.614661
2.218262	1.614536
2.218750	1.614669
2.219238	1.614618
2.219727	1.614759
2.220215	1.614437
2.220703	1.614526
2.221191	1.614808
2.221680	1.614759
2.222168	1.614564
2.222656	1.614625
2.223145	1.614349
2.223633	1.614616
2.224121	1.614421
2.224609	1.614607
2.225098	1.614548
2.225586	1.614622
2.226074	1.614637
2.226562	1.614522
2.227051	1.614580
2.227539	1.614678
2.228027	1.614824
2.228516	1.614462
2.229004	1.614319
2.229492	1.614560
2.229980	1.614640
2.230469	1.614519
2.230957	1.614563
2.231445	1.614369
2.231934	1.614288
2.232422	1.614611
2.232910	1.614595
2.233398	1.614424
2.233887	1.614481
2.234375	1.614470
2.234863	1.614665
2.235352	1.614479
2.235840	1.614601
2.236328	1.614579
2.236816	1.614460
2.237305	1.614345
2.237793	1.614255
2.238281	1.614334
2.238770	1.614450
2.239258	1.614433
2.239746	1.614472
2.240234	1.614360
2.240723	1.614195
2.241211	1.614435
2.241699	1.614424
2.242187	1.614316
2.242676	1.614423
2.243164	1.614319
2.243652	1.614327
2.244141	1.614544
2.244629	1.614565
2.245117	1.614593
2.245605	1.614440
2.246094	1.614285
2.246582	1.614599
2.247070	1.614371
2.247559	1.614591
2.248047	1.614409
2.248535	1.614498
2.249023	1.614412
2.249512	1.614288
2.250000	1.614447
2.250488	1.614549
2.250977	1.614219
2.251465	1.614593
2.251953	1.614405
2.252441	1.614281
2.252930	1.614313
2.253418	1.614485
2.253906	1.614294
2.254395	1.614123
2.254883	1.614200
2.255371	1.614374
2.255859	1.614380
2.256348	1.614427
2.256836	1.614435
2.257324	1.614474
2.257812	1.614439
2.258301	1.614516
2.258789	1.614378
2.259277	1.614383
2.259766	1.614305
2.260254	1.614509
2.260742	1.614258
2.261230	1.614532
2.261719	1.614457
2.262207	1.614464
2.262695	1.614500
2.263184	1.614431
2.263672	1.614367
2.264160	1.614524
2.264648	1.614652
2.265137	1.614770
2.265625	1.614508
2.266113	1.614614
2.266602	1.614597
2.267090	1.614716
2.267578	1.614475
2.268066	1.614693
2.268555	1.614646
2.269043	1.614502
2.269531	1.614461
2.270020	1.614573
2.270508	1.614689
2.270996	1.614566
2.271484	1.614644
2.271973	1.614527
2.272461	1.614624
2.272949	1.614363
2.273437	1.614486
2.273926	1.614215
2.274414	1.614453
2.274902	1.614445
2.275391	1.614645
2.275879	1.614335
2.276367	1.614569
2.276855	1.614510
2.277344	1.614354
2.277832	1.614540
2.278320	1.614475
2.278809	1.614392
2.279297	1.614668
2.279785	1.614664
2.280273	1.614688
2.280762	1.614224
2.281250	1.614496
2.281738	1.614235
2.282227	1.614498
2.282715	1.614551
2.283203	1.614486
2.283691	1.614414
2.284180	1.614458
2.284668	1.614524
2.285156	1.614428
2.285645	1.614629
2.286133	1.614405
2.286621	1.614435
2.287109	1.614472
2.287598	1.614592
2.288086	1.614566
2.288574	1.614552
2.289062	1.614271
2.289551	1.614550
2.290039	1.614240
2.290527	1.614506
2.291016	1.614733
2.291504	1.614498
2.291992	1.614513
2.292480	1.614408
2.292969	1.614211
2.293457	1.614599
2.293945	1.614521
2.294434	1.614442
2.294922	1.614471
2.295410	1.613999
2.295898	1.614281
2.296387	1.614441
2.296875	1.614353
2.297363	1.614329
2.297852	1.614528
2.298340	1.614336
2.298828	1.614557
2.299316	1.614494
2.299805	1.614470
2.300293	1.614593
2.300781	1.614325
2.301270	1.614461
2.301758	1.614362
2.302246	1.614420
2.302734	1.614671
2.303223	1.614472
2.303711	1.614468
2.304199	1.614475
2.304687	1.614238
2.305176	1.614691
2.305664	1.614586
2.306152	1.614643
2.306641	1.614767
2.307129	1.614181
2.307617	1.614651
2.308105	1.614419
2.308594	1.614571
2.309082	1.614522
2.309570	1.614559
2.310059	1.614490
2.310547	1.614573
2.311035	1.614466
2.311523	1.614636
2.312012	1.614371
2.312500	1.614570
2.312988	1.614552
2.313477	1.614696
2.313965	1.614882
2.314453	1.614748
2.314941	1.614616
2.315430	1.614549
2.315918	1.614649
2.316406	1.614604
2.316895	1.614735
2.317383	1.614751
2.317871	1.614642
2.318359	1.614436
2.318848	1.614489
2.319336	1.614528
2.319824	1.614836
2.320312	1.614531
2.320801	1.614915
2.321289	1.614710
2.321777	1.614721
2.322266	1.614845
2.322754	1.614483
2.323242	1.614901
2.323730	1.614467
2.324219	1.614735
2.324707	1.614870
2.325195	1.614695
2.325684	1.614842
2.326172	1.615072
2.326660	1.614867
2.327148	1.614588
2.327637	1.614690
2.328125	1.614694
2.328613	1.614675
2.329102	1.614511
2.329590	1.614624
2.330078	1.614788
2.330566	1.614497
2.331055	1.614646
2.331543	1.614835
2.332031	1.614660
2.332520	1.614638
2.333008	1.614555
2.333496	1.614646
2.333984	1.614497
2.334473	1.614820
2.334961	1.614554
2.335449	1.614811
2.335937	1.614741
2.336426	1.614406
2.336914	1.614574
2.337402	1.614892
2.337891	1.614624
2.338379	1.614530
2.338867	1.614481
2.339355	1.614428
2.339844	1.614709
2.340332	1.614718
2.340820	1.614516
2.341309	1.614264
2.341797	1.614716
2.342285	1.614597
2.342773	1.614646
2.343262	1.614677
2.343750	1.614567
2.344238	1.614626
2.344727	1.614656
2.345215	1.614729
2.345703	1.615050
2.346191	1.614671
2.346680	1.614744
2.347168	1.615026
2.347656	1.614956
2.348145	1.614922
2.348633	1.614746
2.349121	1.614994
2.349609	1.615192
2.350098	1.614688
2.350586	1.614830
2.351074	1.614631
2.351562	1.614760
2.352051	1.614956
2.352539	1.614910
2.353027	1.614669
2.353516	1.614704
2.354004	1.614692
2.354492	1.614903
2.354980	1.614705
2.355469	1.614647
2.355957	1.614821
2.356445	1.614647
2.356934	1.614755
2.357422	1.614905
2.357910	1.614757
2.358398	1.614843
2.358887	1.614737
2.359375	1.614778
2.359863	1.615020
2.360352	1.614613
2.360840	1.615209
2.361328	1.614916
2.361816	1.614892
2.362305	1.614959
2.362793	1.614783
2.363281	1.614987
2.363770	1.614949
2.364258	1.614987
2.364746	1.614522
2.365234	1.614812
2.365723	1.614591
2.366211	1.615004
2.366699	1.614894
2.367187	1.614748
2.367676	1.614727
2.368164	1.614743
2.368652	1.614982
2.369141	1.614729
2.369629	1.614968
2.370117	1.614802
2.370605	1.614779
2.371094	1.614755
2.371582	1.614744
2.372070	1.614693
2.372559	1.614929
2.373047	1.614856
2.373535	1.614582
2.374023	1.615088
2.374512	1.614561
2.375000	1.614489
2.375488	1.614583
2.375977	1.614348
2.376465	1.614508
2.376953	1.614413
2.377441	1.614618
2.377930	1.614571
2.378418	1.614762
2.378906	1.614519
2.379395	1.614497
2.379883	1.614693
2.380371	1.614696
2.380859	1.614751
2.381348	1.614767
2.381836	1.614537
2.382324	1.614751
2.382812	1.614173
2.383301	1.614466
2.383789	1.614594
2.384277	1.614437
2.384766	1.614415
2.385254	1.614312
2.385742	1.614503
2.386230	1.614642
2.386719	1.614292
2.387207	1.614519
2.387695	1.614201
2.388184	1.614335
2.388672	1.614478
2.389160	1.614611
2.389648	1.614821
2.390137	1.614591
2.390625	1.614466
2.391113	1.614294
2.391602	1.614553
2.392090	1.614555
2.392578	1.614585
2.393066	1.614670
2.393555	1.614306
2.394043	1.614645
2.394531	1.614409
2.395020	1.614530
2.395508	1.614475
2.395996	1.614132
2.396484	1.614552
2.396973	1.614405
2.397461	1.614516
2.397949	1.614339
2.398437	1.614649
2.398926	1.614458
2.399414	1.614588
2.399902	1.614685
2.400391	1.614417
2.400879	1.614582
2.401367	1.614690
2.401855	1.614796
2.402344	1.614495
2.402832	1.614481
2.403320	1.614417
2.403809	1.614657
2.404297	1.614558
2.404785	1.614381
2.405273	1.614311
2.405762	1.614599
2.406250	1.614682
2.406738	1.614492
2.407227	1.614499
2.407715	1.614275
2.408203	1.614474
2.408691	1.614182
2.409180	1.614532
2.409668	1.614369
2.410156	1.614500
2.410645	1.614157
2.411133	1.614612
2.411621	1.614544
2.412109	1.614695
2.412598	1.614821
2.413086	1.614616
2.413574	1.614546
2.414062	1.614447
2.414551	1.614658
2.415039	1.614558
2.415527	1.614721
2.416016	1.614544
2.416504	1.614655
2.416992	1.614513
2.417480	1.614653
2.417969	1.614547
2.418457	1.614652
2.418945	1.614731
2.419434	1.614604
2.419922	1.614824
2.420410	1.614383
2.420898	1.614710
2.421387	1.614730
2.421875	1.614898
2.422363	1.614600
2.422852	1.614768
2.423340	1.614672
2.423828	1.614703
2.424316	1.614929
2.424805	1.614886
2.425293	1.614915
2.425781	1.614700
2.426270	1.614683
2.426758	1.614867
2.427246	1.614804
2.427734	1.615006
2.428223	1.615097
2.428711	1.614887
2.429199	1.614894
2.429687	1.615285
2.430176	1.614926
2.430664	1.614594
2.431152	1.615033
2.431641	1.614817
2.432129	1.614914
2.432617	1.614808
2.433105	1.614906
2.433594	1.615233
2.434082	1.614740
2.434570	1.615008
2.435059	1.614883
2.435547	1.614813
2.436035	1.614871
2.436523	1.614886
2.437012	1.614953
2.437500	1.614931
2.437988	1.615097
2.438477	1.615258
2.438965	1.614970
2.439453	1.615103
2.439941	1.615066
2.440430	1.615211
2.440918	1.615100
2.441406	1.615236
2.441895	1.615310
2.442383	1.614916
2.442871	1.615020
2.443359	1.614851
2.443848	1.615106
2.444336	1.615062
2.444824	1.615228
2.445312	1.615111
2.445801	1.615205
2.446289	1.615114
2.446777	1.615212
2.447266	1.615122
2.447754	1.615321
2.448242	1.615327
2.448730	1.615238
2.449219	1.615249
2.449707	1.615164
2.450195	1.615209
2.450684	1.615095
2.451172	1.615287
2.451660	1.614855
2.452148	1.615128
2.452637	1.615297
2.453125	1.615189
2.453613	1.615158
2.454102	1.615100
2.454590	1.615128
2.455078	1.615114
2.455566	1.615430
2.456055	1.615094
2.456543	1.615204
2.457031	1.615225
2.457520	1.615111
2.458008	1.615339
2.458496	1.615314
2.458984	1.615219
2.459473	1.615285
2.459961	1.615152
2.460449	1.615198
2.460937	1.615310
2.461426	1.615198
2.461914	1.615335
2.462402	1.615148
2.462891	1.615149
2.463379	1.615153
2.463867	1.615051
2.464355	1.615200
2.464844	1.615022
2.465332	1.614954
2.465820	1.614926
2.466309	1.615149
2.466797	1.614896
2.467285	1.615122
2.467773	1.615155
2.468262	1.615169
2.468750	1.614820
2.469238	1.615036
2.469727	1.614914
2.470215	1.614956
2.470703	1.615166
2.471191	1.614993
2.471680	1.615074
2.472168	1.614939
2.472656	1.614911
2.473145	1.614702
2.473633	1.614830
2.474121	1.614767
2.474609	1.614789
2.475098	1.614737
2.475586	1.614752
2.476074	1.614657
2.476562	1.614785
2.477051	1.614586
2.477539	1.614632
2.478027	1.614418
2.478516	1.614705
2.479004	1.614757
2.479492	1.614654
2.479980	1.614666
2.480469	1.614508
2.480957	1.614440
2.481445	1.614392
2.481934	1.614439
2.482422	1.614649
2.482910	1.614483
2.483398	1.614532
2.483887	1.614383
2.484375	1.614400
2.484863	1.614615
2.485352	1.614685
2.485840	1.614622
2.486328	1.614582
2.486816	1.614369
2.487305	1.614743
2.487793	1.614325
2.488281	1.614630
2.488770	1.614428
2.489258	1.614189
2.489746	1.614324
2.490234	1.614624
2.490723	1.614555
2.491211	1.614675
2.491699	1.614708
2.492187	1.614456
2.492676	1.614605
2.493164	1.614379
2.493652	1.614511
2.494141	1.614555
2.494629	1.614364
2.495117	1.614414
2.495605	1.614387
2.496094	1.614608
2.496582	1.614589
2.497070	1.614571
2.497559	1.614545
2.498047	1.614505
2.498535	1.614744
2.499023	1.614577
2.499512	1.614751
2.500000	1.614878
2.500488	1.614619
2.500977	1.614524
2.501465	1.614713
2.501953	1.614837
2.502441	1.614710
2.502930	1.614629
2.503418	1.614605
2.503906	1.614514
2.504395	1.614783
2.504883	1.614788
2.505371	1.614857
2.505859	1.614753
2.506348	1.614928
2.506836	1.614521
2.507324	1.614693
2.507812	1.614643
2.508301	1.614505
2.508789	1.614701
2.509277	1.614446
2.509766	1.614839
2.510254	1.614633
2.510742	1.614768
2.511230	1.614573
2.511719	1.614590
2.512207	1.614631
2.512695	1.614128
2.513184	1.614456
2.513672	1.614724
2.514160	1.614659
2.514648	1.614439
2.515137	1.614513
2.515625	1.614431
2.516113	1.614732
2.516602	1.614885
2.517090	1.614701
2.517578	1.614680
2.518066	1.614662
2.518555	1.614812
2.519043	1.614821
2.519531	1.614890
2.520020	1.614768
2.520508	1.614723
2.520996	1.614764
2.521484	1.614632
2.521973	1.614665
2.522461	1.614681
2.522949	1.614687
2.523437	1.614582
2.523926	1.614643
2.524414	1.614746
2.524902	1.614646
2.525391	1.614640
2.525879	1.614723
2.526367	1.614763
2.526855	1.614689
2.527344	1.614760
2.527832	1.614752
2.528320	1.614731
2.528809	1.614954
2.529297	1.614681
2.529785	1.614895
2.530273	1.614804
2.530762	1.614856
2.531250	1.614874
2.531738	1.614917
2.532227	1.614738
2.532715	1.614610
2.533203	1.614679
2.533691	1.614812
2.534180	1.614860
2.534668	1.614788
2.535156	1.614773
2.535645	1.614766
2.536133	1.614765
2.536621	1.614843
2.537109	1.614729
2.537598	1.614776
2.538086	1.615066
2.538574	1.614748
2.539062	1.614694
2.539551	1.615058
2.540039	1.615120
2.540527	1.614921
2.541016	1.614948
2.541504	1.614784
2.541992	1.614650
2.542480	1.614945
2.542969	1.614845
2.543457	1.614658
2.543945	1.614646
2.544434	1.614619
2.544922	1.614680
2.545410	1.614904
2.545898	1.614829
2.546387	1.614813
2.546875	1.614784
2.547363	1.614727
2.547852	1.614648
2.548340	1.614692
2.548828	1.614997
2.549316	1.614555
2.549805	1.614801
2.550293	1.614866
2.550781	1.614680
2.551270	1.614793
2.551758	1.614750
2.552246	1.614778
2.552734	1.614704
2.553223	1.614867
2.553711	1.614533
2.554199	1.614661
2.554687	1.614693
2.555176	1.614691
2.555664	1.614508
2.556152	1.614722
2.556641	1.614554
2.557129	1.614672
2.557617	1.614511
2.558105	1.614754
2.558594	1.614613
2.559082	1.614509
2.559570	1.614858
2.560059	1.614417
2.560547	1.614618
2.561035	1.614626
2.561523	1.614535
2.562012	1.614633
2.562500	1.614492
2.562988	1.614734
2.563477	1.614538
2.563965	1.614280
2.564453	1.614358
2.564941	1.614112
2.565430	1.614474
2.565918	1.614467
2.566406	1.614596
2.566895	1.614624
2.567383	1.614092
2.567871	1.614452
2.568359	1.614327
2.568848	1.614154
2.569336	1.614258
2.569824	1.614506
2.570312	1.614170
2.570801	1.614333
2.571289	1.614542
2.571777	1.614339
2.572266	1.614425
2.572754	1.614167
2.573242	1.614409
2.573730	1.614434
2.574219	1.614149
2.574707	1.614594
2.575195	1.614428
2.575684	1.614368
2.576172	1.614331
2.576660	1.614522
2.577148	1.614350
2.577637	1.614383
2.578125	1.614356
2.578613	1.614322
2.579102	1.614268
2.579590	1.614323
2.580078	1.614536
2.580566	1.614411
2.581055	1.614176
2.581543	1.614226
2.582031	1.614056
2.582520	1.614254
2.583008	1.614461
2.583496	1.614383
2.583984	1.614492
2.584473	1.614427
2.584961	1.614580
2.585449	1.614439
2.585937	1.614414
2.586426	1.614712
2.586914	1.614740
2.587402	1.614540
2.587891	1.614429
2.588379	1.614690
2.588867	1.614599
2.589355	1.614704
2.589844	1.614754
2.590332	1.614707
2.590820	1.614651
2.591309	1.614803
2.591797	1.614610
2.592285	1.614551
2.592773	1.614714
2.593262	1.614518
2.593750	1.614671
2.594238	1.614633
2.594727	1.614885
2.595215	1.614893
2.595703	1.614679
2.596191	1.614765
2.596680	1.614679
2.597168	1.614536
2.597656	1.614798
2.598145	1.614773
2.598633	1.614509
2.599121	1.614721
2.599609	1.614531
2.600098	1.615003
2.600586	1.614778
2.601074	1.614898
2.601562	1.614872
2.602051	1.614860
2.602539	1.614617
2.603027	1.614817
2.603516	1.614760
2.604004	1.614393
2.604492	1.614783
2.604980	1.614603
2.605469	1.614561
2.605957	1.614721
2.606445	1.614997
2.606934	1.614918
2.607422	1.614474
2.607910	1.614680
2.608398	1.614639
2.608887	1.614629
2.609375	1.614735
2.609863	1.614990
2.610352	1.614668
2.610840	1.614676
2.611328	1.614885
2.611816	1.614803
2.612305	1.614856
2.612793	1.614537
2.613281	1.614480
2.613770	1.614759
2.614258	1.614597
2.614746	1.614777
2.615234	1.615084
2.615723	1.614392
2.616211	1.614656
2.616699	1.614376
2.617187	1.614510
2.617676	1.614480
2.618164	1.614710
2.618652	1.614160
2.619141	1.614509
2.619629	1.614553
2.620117	1.614635
2.620605	1.614628
2.621094	1.614481
2.621582	1.614502
2.622070	1.614565
2.622559	1.614590
2.623047	1.614305
2.623535	1.614353
2.624023	1.614349
2.624512	1.614543
2.625000	1.614413
2.625488	1.614470
2.625977	1.614745
2.626465	1.614414
2.626953	1.614615
2.627441	1.614394
2.627930	1.614629
2.628418	1.614407
2.628906	1.614341
2.629395	1.614718
2.629883	1.614715
2.630371	1.614560
2.630859	1.614544
2.631348	1.614921
2.631836	1.614573
2.632324	1.615079
2.632812	1.614719
2.633301	1.614594
2.633789	1.614526
2.634277	1.614759
2.634766	1.614627
2.635254	1.614673
2.635742	1.614697
2.636230	1.614699
2.636719	1.614364
2.637207	1.614643
2.637695	1.614480
2.638184	1.614624
2.638672	1.614647
2.639160	1.614848
2.639648	1.614627
2.640137	1.614649
2.640625	1.614653
2.641113	1.614740
2.641602	1.615079
2.642090	1.614548
2.642578	1.614666
2.643066	1.614427
2.643555	1.614529
2.644043	1.614672
2.644531	1.614631
2.645020	1.614638
2.645508	1.614655
2.645996	1.614444
2.646484	1.614657
2.646973	1.614903
2.647461	1.614463
2.647949	1.614699
2.648437	1.614474
2.648926	1.614664
2.649414	1.614704
2.649902	1.614879
2.650391	1.614651
2.650879	1.614611
2.651367	1.614271
2.651855	1.614480
2.652344	1.614763
2.652832	1.614729
2.653320	1.614494
2.653809	1.614544
2.654297	1.614608
2.654785	1.614614
2.655273	1.614806
2.655762	1.614966
2.656250	1.614760
2.656738	1.614691
2.657227	1.614671
2.657715	1.614897
2.658203	1.614858
2.658691	1.614757
2.659180	1.614965
2.659668	1.614903
2.660156	1.614888
2.660645	1.615109
2.661133	1.615018
2.661621	1.615142
2.662109	1.615081
2.662598	1.614938
2.663086	1.614650
2.663574	1.614629
2.664062	1.614981
2.664551	1.614916
2.665039	1.614692
2.665527	1.614667
2.666016	1.614751
2.666504	1.614727
2.666992	1.615067
2.667480	1.614798
2.667969	1.614407
2.668457	1.614784
2.668945	1.614718
2.669434	1.614879
2.669922	1.614742
2.670410	1.614940
2.670898	1.614854
2.671387	1.614639
2.671875	1.614773
2.672363	1.614624
2.672852	1.614762
2.673340	1.614567
2.673828	1.614910
2.674316	1.614842
2.674805	1.614637
2.675293	1.614935
2.675781	1.614655
2.676270	1.614680
2.676758	1.614938
2.677246	1.614615
2.677734	1.614744
2.678223	1.614692
2.678711	1.615130
2.679199	1.614959
2.679687	1.614887
2.680176	1.614665
2.680664	1.614633
2.681152	1.614691
2.681641	1.614699
2.682129	1.614826
2.682617	1.614575
2.683105	1.614534
2.683594	1.614596
2.684082	1.614629
2.684570	1.614456
2.685059	1.614740
2.685547	1.614702
2.686035	1.614802
2.686523	1.614649
2.687012	1.614720
2.687500	1.614685
2.687988	1.614691
2.688477	1.614660
2.688965	1.614633
2.689453	1.614499
2.689941	1.614884
2.690430	1.614554
2.690918	1.614694
2.691406	1.614289
2.691895	1.614574
2.692383	1.614668
2.692871	1.614518
2.693359	1.614388
2.693848	1.614599
2.694336	1.614345
2.694824	1.614546
2.695312	1.614529
2.695801	1.614613
2.696289	1.614530
2.696777	1.614465
2.697266	1.614513
2.697754	1.614463
2.698242	1.614388
2.698730	1.614481
2.699219	1.614586
2.699707	1.614536
2.700195	1.614537
2.700684	1.614269
2.701172	1.614591
2.701660	1.614629
2.702148	1.614501
2.702637	1.614783
2.703125	1.614293
2.703613	1.614303
2.704102	1.614378
2.704590	1.614329
2.705078	1.614480
2.705566	1.614421
2.706055	1.614391
2.706543	1.614483
2.707031	1.614547
2.707520	1.614603
2.708008	1.614524
2.708496	1.614298
2.708984	1.614381
2.709473	1.614439
2.709961	1.614581
2.710449	1.614406
2.710937	1.614599
2.711426	1.614506
2.711914	1.614397
2.712402	1.614240
2.712891	1.614453
2.713379	1.614322
2.713867	1.614555
2.714355	1.614273
2.714844	1.614334
2.715332	1.614608
2.715820	1.614323
2.716309	1.614741
2.716797	1.614333
2.717285	1.614445
2.717773	1.614437
2.718262	1.614615
2.718750	1.614442
2.719238	1.614627
2.719727	1.614752
2.720215	1.614723
2.720703	1.614797
2.721191	1.614675
2.721680	1.614772
2.722168	1.614735
2.722656	1.614781
2.723145	1.614517
2.723633	1.614628
2.724121	1.614597
2.724609	1.614857
2.725098	1.614580
2.725586	1.614555
2.726074	1.614538
2.726562	1.614446
2.727051	1.614381
2.727539	1.614617
2.728027	1.614874
2.728516	1.614787
2.729004	1.614605
2.729492	1.614655
2.729980	1.614567
2.730469	1.614561
2.730957	1.614746
2.731445	1.614704
2.731934	1.614571
2.732422	1.614690
2.732910	1.614746
2.733398	1.614571
2.733887	1.614716
2.734375	1.614820
2.734863	1.614746
2.735352	1.614948
2.735840	1.614799
2.736328	1.614802
2.736816	1.614801
2.737305	1.614653
2.737793	1.614749
2.738281	1.614530
2.738770	1.614664
2.739258	1.614850
2.739746	1.614779
2.740234	1.614839
2.740723	1.614791
2.741211	1.614693
2.741699	1.614611
2.742187	1.614744
2.742676	1.614834
2.743164	1.614564
2.743652	1.614560
2.744141	1.614588
2.744629	1.614777
2.745117	1.614607
2.745605	1.614784
2.746094	1.614825
2.746582	1.614572
2.747070	1.614726
2.747559	1.614803
2.748047	1.614717
2.748535	1.614808
2.749023	1.614698
2.749512	1.614704
2.750000	1.614595
2.750488	1.614752
2.750977	1.614962
2.751465	1.614878
2.751953	1.614862
2.752441	1.614606
2.752930	1.614613
2.753418	1.614790
2.753906	1.614776
2.754395	1.614932
2.754883	1.614859
2.755371	1.614557
2.755859	1.614795
2.756348	1.614548
2.756836	1.614903
2.757324	1.615031
2.757812	1.614854
2.758301	1.615173
2.758789	1.614852
2.759277	1.614922
2.759766	1.614925
2.760254	1.614848
2.760742	1.614881
2.761230	1.614824
2.761719	1.614757
2.762207	1.614885
2.762695	1.614755
2.763184	1.614899
2.763672	1.614831
2.764160	1.614585
2.764648	1.614877
2.765137	1.614895
2.765625	1.614931
2.766113	1.614782
2.766602	1.614560
2.767090	1.614783
2.767578	1.614611
2.768066	1.614939
2.768555	1.614978
2.769043	1.614842
2.769531	1.614717
2.770020	1.614910
2.770508	1.614819
2.770996	1.614665
2.771484	1.614904
2.771973	1.614863
2.772461	1.614912
2.772949	1.614815
2.773437	1.614896
2.773926	1.614866
2.774414	1.614530
2.774902	1.614798
2.775391	1.614680
2.775879	1.614746
2.776367	1.614851
2.776855	1.614836
2.777344	1.615243
2.777832	1.614788
2.778320	1.614704
2.778809	1.614670
2.779297	1.614579
2.779785	1.614972
2.780273	1.614826
2.780762	1.614898
2.781250	1.614688
2.781738	1.614755
2.782227	1.614805
2.782715	1.614484
2.783203	1.614525
2.783691	1.614859
2.784180	1.614630
2.784668	1.614414
2.785156	1.614643
2.785645	1.614588
2.786133	1.614699
2.786621	1.614743
2.787109	1.614510
2.787598	1.614415
2.788086	1.614620
2.788574	1.614678
2.789062	1.614865
2.789551	1.614525
2.790039	1.614659
2.790527	1.614470
2.791016	1.614601
2.791504	1.614585
2.791992	1.614496
2.792480	1.614425
2.792969	1.614445
2.793457	1.614315
2.793945	1.614478
2.794434	1.614383
2.794922	1.614300
2.795410	1.614261
2.795898	1.614319
2.796387	1.614345
2.796875	1.614242
2.797363	1.614386
2.797852	1.614271
2.798340	1.614176
2.798828	1.614029
2.799316	1.613998
2.799805	1.614297
2.800293	1.614245
2.800781	1.614329
2.801270	1.614289
2.801758	1.614138
2.802246	1.614186
2.802734	1.614224
2.803223	1.614183
2.803711	1.614221
2.804199	1.614107
2.804687	1.614048
2.805176	1.614187
2.805664	1.614257
2.806152	1.614483
2.806641	1.614212
2.807129	1.614042
2.807617	1.614361
2.808105	1.614273
2.808594	1.614193
2.809082	1.614188
2.809570	1.614286
2.810059	1.614165
2.810547	1.614139
2.811035	1.614188
2.811523	1.614295
2.812012	1.614221
2.812500	1.614311
2.812988	1.614079
2.813477	1.614199
2.813965	1.614100
2.814453	1.614389
2.814941	1.614477
2.815430	1.614422
2.815918	1.614252
2.816406	1.614410
2.816895	1.614366
2.817383	1.614462
2.817871	1.614571
2.818359	1.614394
2.818848	1.614641
2.819336	1.614295
2.819824	1.614696
2.820312	1.614640
2.820801	1.614516
2.821289	1.614572
2.821777	1.614555
2.822266	1.614638
2.822754	1.614632
2.823242	1.614546
2.823730	1.614792
2.824219	1.614489
2.824707	1.614512
2.825195	1.614625
2.825684	1.614704
2.826172	1.614576
2.826660	1.614685
2.827148	1.614585
2.827637	1.614447
2.828125	1.614341
2.828613	1.614500
2.829102	1.614490
2.829590	1.614627
2.830078	1.614619
2.830566	1.614494
2.831055	1.614675
2.831543	1.614621
2.832031	1.614935
2.832520	1.614744
2.833008	1.614711
2.833496	1.614696
2.833984	1.614834
2.834473	1.614625
2.834961	1.614470
2.835449	1.614894
2.835937	1.614893
2.836426	1.614677
2.836914	1.614771
2.837402	1.614931
2.837891	1.614918
2.838379	1.614939
2.838867	1.614792
2.839355	1.614669
2.839844	1.614924
2.840332	1.614840
2.840820	1.614832
2.841309	1.614744
2.841797	1.614882
2.842285	1.614667
2.842773	1.614695
2.843262	1.614705
2.843750	1.614823
2.844238	1.614470
2.844727	1.614901
2.845215	1.614593
2.845703	1.615048
2.846191	1.615078
2.846680	1.614718
2.847168	1.614812
2.847656	1.614971
2.848145	1.614829
2.848633	1.614753
2.849121	1.614891
2.849609	1.614801
2.850098	1.614970
2.850586	1.614801
2.851074	1.614818
2.851562	1.614611
2.852051	1.615003
2.852539	1.614928
2.853027	1.614834
2.853516	1.614676
2.854004	1.614733
2.854492	1.614736
2.854980	1.615118
2.855469	1.614885
2.855957	1.614780
2.856445	1.614741
2.856934	1.614905
2.857422	1.615065
2.857910	1.614934
2.858398	1.614928
2.858887	1.614791
2.859375	1.614910
2.859863	1.615035
2.860352	1.614937
2.860840	1.614870
2.861328	1.615216
2.861816	1.614987
2.862305	1.614883
2.862793	1.614728
2.863281	1.614763
2.863770	1.614892
2.864258	1.615023
2.864746	1.614712
2.865234	1.614660
2.865723	1.614705
2.866211	1.614693
2.866699	1.614536
2.867187	1.614594
2.867676	1.614659
2.868164	1.614716
2.868652	1.614649
2.869141	1.614856
2.869629	1.614945
2.870117	1.614805
2.870605	1.614525
2.871094	1.614768
2.871582	1.614699
2.872070	1.614689
2.872559	1.614703
2.873047	1.614679
2.873535	1.614625
2.874023	1.614795
2.874512	1.614553
2.875000	1.614874
2.875488	1.614832
2.875977	1.614630
2.876465	1.614981
2.876953	1.614561
2.877441	1.614775
2.877930	1.614871
2.878418	1.614787
2.878906	1.614982
2.879395	1.614464
2.879883	1.614655
2.880371	1.614737
2.880859	1.614730
2.881348	1.615003
2.881836	1.614609
2.882324	1.614994
2.882812	1.614757
2.883301	1.614510
2.883789	1.614669
2.884277	1.614461
2.884766	1.614780
2.885254	1.614612
2.885742	1.614755
2.886230	1.614553
2.886719	1.614579
2.887207	1.614666
2.887695	1.614400
2.888184	1.614400
2.888672	1.614602
2.889160	1.614613
2.889648	1.614713
2.890137	1.614571
2.890625	1.614881
2.891113	1.614402
2.891602	1.614216
2.892090	1.614416
2.892578	1.614326
2.893066	1.614489
2.893555	1.614486
2.894043	1.614485
2.894531	1.614417
2.895020	1.614472
2.895508	1.614402
2.895996	1.614603
2.896484	1.614428
2.896973	1.614287
2.897461	1.614305
2.897949	1.614220
2.898437	1.614316
2.898926	1.614501
2.899414	1.614167
2.899902	1.614267
2.900391	1.614164
2.900879	1.614066
2.901367	1.614483
2.901855	1.614397
2.902344	1.614771
2.902832	1.614436
2.903320	1.613995
2.903809	1.614446
2.904297	1.614252
2.904785	1.614497
2.905273	1.614239
2.905762	1.614292
2.906250	1.614546
2.906738	1.614503
2.907227	1.614347
2.907715	1.614434
2.908203	1.614232
2.908691	1.614292
2.909180	1.614384
2.909668	1.614363
2.910156	1.614511
2.910645	1.614280
2.911133	1.614348
2.911621	1.614119
2.912109	1.614557
2.912598	1.614370
2.913086	1.614563
2.913574	1.614568
2.914062	1.614404
2.914551	1.614369
2.915039	1.614361
2.915527	1.614424
2.916016	1.614372
2.916504	1.614395
2.916992	1.614490
2.917480	1.614337
2.917969	1.614646
2.918457	1.614574
2.918945	1.614721
2.919434	1.614749
2.919922	1.614687
2.920410	1.614383
2.920898	1.614398
2.921387	1.614704
2.921875	1.614578
2.922363	1.614585
2.922852	1.614624
2.923340	1.614496
2.923828	1.614561
2.924316	1.614496
2.924805	1.614594
2.925293	1.614841
2.925781	1.614402
2.926270	1.614429
2.926758	1.614686
2.927246	1.614434
2.927734	1.614752
2.928223	1.614530
2.928711	1.614793
2.929199	1.614771
2.929687	1.614752
2.930176	1.614514
2.930664	1.614657
2.931152	1.614652
2.931641	1.614732
2.932129	1.614532
2.932617	1.614658
2.933105	1.614422
2.933594	1.614434
2.934082	1.614686
2.934570	1.614380
2.935059	1.614888
2.935547	1.614601
2.936035	1.614868
2.936523	1.614829
2.937012	1.614860
2.937500	1.614721
2.937988	1.614463
2.938477	1.614731
2.938965	1.614874
2.939453	1.614914
2.939941	1.614770
2.940430	1.614793
2.940918	1.614620
2.941406	1.614857
2.941895	1.614710
2.942383	1.614939
2.942871	1.614689
2.943359	1.614496
2.943848	1.614581
2.944336	1.614564
2.944824	1.614653
2.945312	1.614748
2.945801	1.614613
2.946289	1.614701
2.946777	1.614625
2.947266	1.614599
2.947754	1.614563
2.948242	1.614530
2.948730	1.614825
2.949219	1.614656
2.949707	1.614733
2.950195	1.614730
2.950684	1.614831
2.951172	1.614956
2.951660	1.614618
2.952148	1.614651
2.952637	1.614700
2.953125	1.614740
2.953613	1.614602
2.954102	1.614871
2.954590	1.614619
2.955078	1.614661
2.955566	1.614615
2.956055	1.614990
2.956543	1.614849
2.957031	1.614748
2.957520	1.614839
2.958008	1.614592
2.958496	1.614931
2.958984	1.614701
2.959473	1.614934
2.959961	1.614732
2.960449	1.614738
2.960937	1.614840
2.961426	1.614786
2.961914	1.614826
2.962402	1.614993
2.962891	1.614841
2.963379	1.614647
2.963867	1.614770
2.964355	1.614890
2.964844	1.614888
2.965332	1.614514
2.965820	1.614604
2.966309	1.614837
2.966797	1.614477
2.967285	1.614548
2.967773	1.614525
2.968262	1.614790
2.968750	1.614558
2.969238	1.614818
2.969727	1.614468
2.970215	1.614676
2.970703	1.614688
2.971191	1.614777
2.971680	1.614904
2.972168	1.614802
2.972656	1.614725
2.973145	1.614534
2.973633	1.614784
2.974121	1.614712
2.974609	1.614650
2.975098	1.614619
2.975586	1.614643
2.976074	1.614387
2.976562	1.614829
2.977051	1.614484
2.977539	1.614513
2.978027	1.614161
2.978516	1.614364
2.979004	1.614317
2.979492	1.614580
2.979980	1.614627
2.980469	1.614356
2.980957	1.614469
2.981445	1.614494
2.981934	1.614498
2.982422	1.614501
2.982910	1.614571
2.983398	1.614414
2.983887	1.614500
2.984375	1.614435
2.984863	1.614418
2.985352	1.614563
2.985840	1.614542
2.986328	1.614128
2.986816	1.614367
2.987305	1.614182
2.987793	1.614391
2.988281	1.614525
2.988770	1.614337
2.989258	1.614609
2.989746	1.614330
2.990234	1.614272
2.990723	1.614328
2.991211	1.614502
2.991699	1.614442
2.992187	1.614248
2.992676	1.614226
2.993164	1.614295
2.993652	1.613991
2.994141	1.614303
2.994629	1.614075
2.995117	1.614260
2.995605	1.614359
2.996094	1.614143
2.996582	1.614618
2.997070	1.614351
2.997559	1.614381
2.998047	1.614322
2.998535	1.614492
2.999023	1.614116
2.999512	1.614269
3.000000	1.614167
3.000488	1.614249
3.000977	1.614176
3.001465	1.614250
3.001953	1.614142
3.002441	1.614255
3.002930	1.614503
3.003418	1.614292
3.003906	1.614137
3.004395	1.614073
3.004883	1.614430
3.005371	1.614391
3.005859	1.614507
3.006348	1.614142
3.006836	1.614405
3.007324	1.614073
3.007812	1.614431
3.008301	1.614331
3.008789	1.614397
3.009277	1.614182
3.009766	1.614324
3.010254	1.614229
3.010742	1.614469
3.011230	1.614342
3.011719	1.614336
3.012207	1.614457
3.012695	1.614328
3.013184	1.614353
3.013672	1.614330
3.014160	1.614489
3.014648	1.614658
3.015137	1.614306
3.015625	1.614600
3.016113	1.614511
3.016602	1.614250
3.017090	1.614689
3.017578	1.614466
3.018066	1.614585
3.018555	1.614654
3.019043	1.614600
3.019531	1.614743
3.020020	1.614752
3.020508	1.614674
3.020996	1.614749
3.021484	1.614531
3.021973	1.614654
3.022461	1.614672
3.022949	1.614798
3.023437	1.614798
3.023926	1.615042
3.024414	1.614871
3.024902	1.614708
3.025391	1.614628
3.025879	1.614745
3.026367	1.614668
3.026855	1.614856
3.027344	1.614543
3.027832	1.614644
3.028320	1.614638
3.028809	1.614796
3.029297	1.614862
3.029785	1.614795
3.030273	1.614704
3.030762	1.614914
3.031250	1.614678
3.031738	1.614957
3.032227	1.614863
3.032715	1.614748
3.033203	1.614387
3.033691	1.614830
3.034180	1.614544
3.034668	1.615008
3.035156	1.614950
3.035645	1.614485
3.036133	1.614589
3.036621	1.614755
3.037109	1.614717
3.037598	1.614633
3.038086	1.614777
3.038574	1.614434
3.039062	1.614527
3.039551	1.614548
3.040039	1.614774
3.040527	1.614486
3.041016	1.614654
3.041504	1.614632
3.041992	1.614577
3.042480	1.614422
3.042969	1.614487
3.043457	1.614544
3.043945	1.614816
3.044434	1.614602
3.044922	1.614444
3.045410	1.614538
3.045898	1.614386
3.046387	1.614544
3.046875	1.614372
3.047363	1.614495
3.047852	1.614455
3.048340	1.614377
3.048828	1.614539
3.049316	1.614740
3.049805	1.614668
3.050293	1.614456
3.050781	1.614477
3.051270	1.614583
3.051758	1.614502
3.052246	1.614519
3.052734	1.614441
3.053223	1.614354
3.053711	1.614368
3.054199	1.614483
3.054687	1.614580
3.055176	1.614352
3.055664	1.614475
3.056152	1.614478
3.056641	1.614362
3.057129	1.614387
3.057617	1.614251
3.058105	1.614424
3.058594	1.614187
3.059082	1.614320
3.059570	1.614439
3.060059	1.614141
3.060547	1.614391
3.061035	1.614301
3.061523	1.614253
3.062012	1.614152
3.062500	1.613963
3.062988	1.614268
3.063477	1.614342
3.063965	1.614288
3.064453	1.614239
3.064941	1.614272
3.065430	1.614267
3.065918	1.614466
3.066406	1.614460
3.066895	1.614411
3.067383	1.614143
3.067871	1.614339
3.068359	1.614204
3.068848	1.614348
3.069336	1.614149
3.069824	1.614444
3.070312	1.614450
3.070801	1.614388
3.071289	1.614127
3.071777	1.614464
3.072266	1.614416
3.072754	1.614503
3.073242	1.614425
3.073730	1.614360
3.074219	1.614354
3.074707	1.614499
3.075195	1.614258
3.075684	1.614558
3.076172	1.614367
3.076660	1.614366
3.077148	1.614306
3.077637	1.614352
3.078125	1.614527
3.078613	1.614286
3.079102	1.614294
3.079590	1.614311
3.080078	1.614527
3.080566	1.614266
3.081055	1.614543
3.081543	1.614461
3.082031	1.614308
3.082520	1.614492
3.083008	1.614328
3.083496	1.614406
3.083984	1.614204
3.084473	1.614388
3.084961	1.614316
3.085449	1.614421
3.085937	1.614035
3.086426	1.614294
3.086914	1.614507
3.087402	1.614394
3.087891	1.614339
3.088379	1.614392
3.088867	1.614295
3.089355	1.614263
3.089844	1.614646
3.090332	1.614380
3.090820	1.614449
3.091309	1.614250
3.091797	1.614327
3.092285	1.614474
3.092773	1.614253
3.093262	1.614259
3.093750	1.614379
3.094238	1.614355
3.094727	1.614276
3.095215	1.614346
3.095703	1.614233
3.096191	1.614175
3.096680	1.614463
3.097168	1.614554
3.097656	1.614308
3.098145	1.614398
3.098633	1.614472
3.099121	1.614532
3.099609	1.614510
3.100098	1.614275
3.100586	1.614287
3.101074	1.614547
3.101562	1.614305
3.102051	1.614411
3.102539	1.614360
3.103027	1.613996
3.103516	1.614141
3.104004	1.614101
3.104492	1.614248
3.104980	1.614129
3.105469	1.614007
3.105957	1.614389
3.106445	1.614198
3.106934	1.614269
3.107422	1.614275
3.107910	1.614195
3.108398	1.614197
3.108887	1.614243
3.109375	1.614353
3.109863	1.614355
3.110352	1.614383
3.110840	1.614322
3.111328	1.614285
3.111816	1.614287
3.112305	1.614331
3.112793	1.614125
3.113281	1.614527
3.113770	1.614225
3.114258	1.613929
3.114746	1.614359
3.115234	1.614325
3.115723	1.614472
3.116211	1.614320
3.116699	1.614295
3.117187	1.614480
3.117676	1.614076
3.118164	1.614323
3.118652	1.614312
3.119141	1.614298
3.119629	1.614417
3.120117	1.614364
3.120605	1.614452
3.121094	1.614433
3.121582	1.614558
3.122070	1.614459
3.122559	1.614389
3.123047	1.614214
3.123535	1.614281
3.124023	1.614205
3.124512	1.614313
3.125000	1.614370
3.125488	1.614377
3.125977	1.614108
3.126465	1.614359
3.126953	1.614154
3.127441	1.614342
3.127930	1.614378
3.128418	1.614226
3.128906	1.614048
3.129395	1.614351
3.129883	1.614269
3.130371	1.614221
3.130859	1.614312
3.131348	1.614292
3.131836	1.614349
3.132324	1.614223
3.132812	1.614295
3.133301	1.614200
3.133789	1.614171
3.134277	1.614233
3.134766	1.614439
3.135254	1.614288
3.135742	1.614302
3.136230	1.614364
3.136719	1.614321
3.137207	1.614268
3.137695	1.614087
3.138184	1.614348
3.138672	1.614273
3.139160	1.614295
3.139648	1.614314
3.140137	1.614270
3.140625	1.614295
3.141113	1.614258
3.141602	1.614080
3.142090	1.614532
3.142578	1.614252
3.143066	1.614237
3.143555	1.614388
3.144043	1.614290
3.144531	1.614353
3.145020	1.614215
3.145508	1.614438
3.145996	1.614253
3.146484	1.614166
3.146973	1.614427
3.147461	1.614378
3.147949	1.614552
3.148437	1.614197
3.148926	1.614434
3.149414	1.614329
3.149902	1.614589
3.150391	1.614414
3.150879	1.614429
3.151367	1.614869
3.151855	1.614580
3.152344	1.614572
3.152832	1.614658
3.153320	1.614475
3.153809	1.614711
3.154297	1.614372
3.154785	1.614483
3.155273	1.614602
3.155762	1.614478
3.156250	1.614639
3.156738	1.614488
3.157227	1.614408
3.157715	1.614430
3.158203	1.614502
3.158691	1.614460
3.159180	1.614540
3.159668	1.614544
3.160156	1.614555
3.160645	1.614439
3.161133	1.614337
3.161621	1.614460
3.162109	1.614583
3.162598	1.614367
3.163086	1.614580
3.163574	1.614532
3.164062	1.614241
3.164551	1.614383
3.165039	1.614384
3.165527	1.614688
3.166016	1.614275
3.166504	1.614179
3.166992	1.614608
3.167480	1.614459
3.167969	1.614583
3.168457	1.614522
3.168945	1.614334
3.169434	1.614554
3.169922	1.614618
3.170410	1.614475
3.170898	1.614715
3.171387	1.614175
3.171875	1.614243
3.172363	1.614215
3.172852	1.614146
3.173340	1.614324
3.173828	1.614284
3.174316	1.614557
3.174805	1.614293
3.175293	1.614160
3.175781	1.614415
3.176270	1.614221
3.176758	1.614577
3.177246	1.614291
3.177734	1.614573
3.178223	1.614377
3.178711	1.614241
3.179199	1.614530
3.179687	1.614598
3.180176	1.614463
3.180664	1.614029
3.181152	1.614313
3.181641	1.614468
3.182129	1.614407
3.182617	1.614357
3.183105	1.614344
3.183594	1.614313
3.184082	1.614449
3.184570	1.614398
3.185059	1.614452
3.185547	1.614398
3.186035	1.614619
3.186523	1.614333
3.187012	1.614303
3.187500	1.614345
3.187988	1.614727
3.188477	1.614389
3.188965	1.614405
3.189453	1.614370
3.189941	1.614405
3.190430	1.614347
3.190918	1.614291
3.191406	1.614520
3.191895	1.614342
3.192383	1.614318
3.192871	1.614254
3.193359	1.614352
3.193848	1.614299
3.194336	1.614301
3.194824	1.614269
3.195312	1.614242
3.195801	1.614071
3.196289	1.614380
3.196777	1.614401
3.197266	1.614359
3.197754	1.614258
3.198242	1.614301
3.198730	1.614521
3.199219	1.614492
3.199707	1.614588
3.200195	1.614507
3.200684	1.614754
3.201172	1.614500
3.201660	1.614455
3.202148	1.614515
3.202637	1.614480
3.203125	1.614654
3.203613	1.614595
3.204102	1.614560
3.204590	1.614768
3.205078	1.614419
3.205566	1.614402
3.206055	1.614752
3.206543	1.614671
3.207031	1.614734
3.207520	1.614611
3.208008	1.614810
3.208496	1.614648
3.208984	1.614381
3.209473	1.614756
3.209961	1.614624
3.210449	1.614667
3.210937	1.614602
3.211426	1.614775
3.211914	1.614867
3.212402	1.614657
3.212891	1.614449
3.213379	1.614560
3.213867	1.614541
3.214355	1.614608
3.214844	1.614643
3.215332	1.614602
3.215820	1.614564
3.216309	1.614405
3.216797	1.614822
3.217285	1.614647
3.217773	1.614719
3.218262	1.614898
3.218750	1.614748
3.219238	1.614861
3.219727	1.614837
3.220215	1.614729
3.220703	1.614989
3.221191	1.614738
3.221680	1.614723
3.222168	1.614821
3.222656	1.614784
3.223145	1.614798
3.223633	1.614725
3.224121	1.614596
3.224609	1.614596
3.225098	1.614965
3.225586	1.614690
3.226074	1.614926
3.226562	1.614879
3.227051	1.614698
3.227539	1.614843
3.228027	1.614688
3.228516	1.614831
3.229004	1.614980
3.229492	1.614981
3.229980	1.614992
3.230469	1.614809
3.230957	1.614934
3.231445	1.615158
3.231934	1.615103
3.232422	1.614965
3.232910	1.614904
3.233398	1.615163
3.233887	1.615082
3.234375	1.615064
3.234863	1.615108
3.235352	1.615184
3.235840	1.615031
3.236328	1.614896
3.236816	1.615029
3.237305	1.615124
3.237793	1.615106
3.238281	1.615194
3.238770	1.615028
3.239258	1.615095
3.239746	1.615223
3.240234	1.615221
3.240723	1.614999
3.241211	1.614965
3.241699	1.615067
3.242187	1.614961
3.242676	1.615294
3.243164	1.614859
3.243652	1.614963
3.244141	1.614922
3.244629	1.614934
3.245117	1.615097
3.245605	1.615186
3.246094	1.615094
3.246582	1.615168
3.247070	1.615034
3.247559	1.615209
3.248047	1.614854
3.248535	1.615135
3.249023	1.615385
3.249512	1.615217
3.250000	1.615421
3.250488	1.615207
3.250977	1.615364
3.251465	1.615192
3.251953	1.615285
3.252441	1.615353
3.252930	1.615280
3.253418	1.615082
3.253906	1.615306
3.254395	1.614950
3.254883	1.615299
3.255371	1.614933
3.255859	1.614859
3.256348	1.614939
3.256836	1.615314
3.257324	1.614824
3.257812	1.615259
3.258301	1.615137
3.258789	1.615175
3.259277	1.615158
3.259766	1.615167
3.260254	1.615204
3.260742	1.615009
3.261230	1.615275
3.261719	1.615215
3.262207	1.614943
3.262695	1.614978
3.263184	1.615015
3.263672	1.614990
3.264160	1.615130
3.264648	1.615084
3.265137	1.614978
3.265625	1.615098
3.266113	1.615094
3.266602	1.614965
3.267090	1.614904
3.267578	1.614831
3.268066	1.614907
3.268555	1.614987
3.269043	1.615346
3.269531	1.615246
3.270020	1.615189
3.270508	1.615021
3.270996	1.615082
3.271484	1.614891
3.271973	1.615081
3.272461	1.615030
3.272949	1.614804
3.273437	1.614780
3.273926	1.614740
3.274414	1.614821
3.274902	1.614834
3.275391	1.614908
3.275879	1.614859
3.276367	1.614635
3.276855	1.614748
3.277344	1.614782
3.277832	1.614762
3.278320	1.614798
3.278809	1.614906
3.279297	1.614637
3.279785	1.615019
3.280273	1.614959
3.280762	1.614733
3.281250	1.614888
3.281738	1.614643
3.282227	1.614901
3.282715	1.614574
3.283203	1.614723
3.283691	1.615118
3.284180	1.614846
3.284668	1.614898
3.285156	1.614811
3.285645	1.614838
3.286133	1.614938
3.286621	1.614894
3.287109	1.614874
3.287598	1.614747
3.288086	1.614631
3.288574	1.614691
3.289062	1.615022
3.289551	1.614831
3.290039	1.614708
3.290527	1.614635
3.291016	1.614668
3.291504	1.614655
3.291992	1.614927
3.292480	1.614691
3.292969	1.614366
3.293457	1.614577
3.293945	1.614596
3.294434	1.614779
3.294922	1.614690
3.295410	1.614950
3.295898	1.614856
3.296387	1.614897
3.296875	1.614891
3.297363	1.614914
3.297852	1.615220
3.298340	1.615005
3.298828	1.615087
3.299316	1.615176
3.299805	1.614944
3.300293	1.614951
3.300781	1.615056
3.301270	1.615139
3.301758	1.614915
3.302246	1.614849
3.302734	1.614692
3.303223	1.614909
3.303711	1.614708
3.304199	1.615063
3.304687	1.614485
3.305176	1.614626
3.305664	1.614881
3.306152	1.614837
3.306641	1.614662
3.307129	1.614953
3.307617	1.614857
3.308105	1.614901
3.308594	1.615083
3.309082	1.614801
3.309570	1.614974
3.310059	1.614871
3.310547	1.614746
3.311035	1.614975
3.311523	1.614716
3.312012	1.614853
3.312500	1.614971
3.312988	1.614879
3.313477	1.614633
3.313965	1.614688
3.314453	1.614844
3.314941	1.614962
3.315430	1.614816
3.315918	1.614796
3.316406	1.614379
3.316895	1.614786
3.317383	1.614627
3.317871	1.614840
3.318359	1.614510
3.318848	1.614654
3.319336	1.614617
3.319824	1.614807
3.320312	1.614813
3.320801	1.614788
3.321289	1.614908
3.321777	1.614843
3.322266	1.614695
3.322754	1.614617
3.323242	1.614685
3.323730	1.614938
3.324219	1.614965
3.324707	1.614793
3.325195	1.614722
3.325684	1.614458
3.326172	1.614833
3.326660	1.614578
3.327148	1.614766
3.327637	1.614438
3.328125	1.614633
3.328613	1.614732
3.329102	1.614644
3.329590	1.614999
3.330078	1.614888
3.330566	1.614733
3.331055	1.614679
3.331543	1.614715
3.332031	1.614900
3.332520	1.614862
3.333008	1.614638
3.333496	1.614732
3.333984	1.615007
3.334473	1.614710
3.334961	1.614826
3.335449	1.614636
3.335937	1.614790
3.336426	1.614781
3.336914	1.614711
3.337402	1.614727
3.337891	1.614586
3.338379	1.614890
3.338867	1.614781
3.339355	1.614667
3.339844	1.614720
3.340332	1.614644
3.340820	1.614839
3.341309	1.614752
3.341797	1.614665
3.342285	1.614503
3.342773	1.614640
3.343262	1.614326
3.343750	1.614685
3.344238	1.614751
3.344727	1.614467
3.345215	1.614571
3.345703	1.614682
3.346191	1.614555
3.346680	1.614825
3.347168	1.614942
3.347656	1.614472
3.348145	1.614674
3.348633	1.614774
3.349121	1.614790
3.349609	1.614889
3.350098	1.615038
3.350586	1.614757
3.351074	1.614953
3.351562	1.614660
3.352051	1.614810
3.352539	1.614675
3.353027	1.614931
3.353516	1.614995
3.354004	1.614793
3.354492	1.614756
3.354980	1.614821
3.355469	1.615003
3.355957	1.614885
3.356445	1.614965
3.356934	1.614697
3.357422	1.614823
3.357910	1.614746
3.358398	1.614819
3.358887	1.614799
3.359375	1.614958
3.359863	1.614868
3.360352	1.614708
3.360840	1.614909
3.361328	1.614903
3.361816	1.614952
3.362305	1.614792
3.362793	1.614614
3.363281	1.614855
3.363770	1.614822
3.364258	1.615032
3.364746	1.614854
3.365234	1.614672
3.365723	1.614925
3.366211	1.614633
3.366699	1.614668
3.367187	1.614667
3.367676	1.614849
3.368164	1.614574
3.368652	1.614721
3.369141	1.614560
3.369629	1.614712
3.370117	1.614762
3.370605	1.614958
3.371094	1.614578
3.371582	1.614496
3.372070	1.614668
3.372559	1.614931
3.373047	1.614774
3.373535	1.614784
3.374023	1.614598
3.374512	1.614515
3.375000	1.614547
3.375488	1.614733
3.375977	1.614555
3.376465	1.614731
3.376953	1.614583
3.377441	1.614511
3.377930	1.614900
3.378418	1.614730
3.378906	1.614828
3.379395	1.614832
3.379883	1.614932
3.380371	1.614487
3.380859	1.614618
3.381348	1.614926
3.381836	1.614962
3.382324	1.614759
3.382812	1.614727
3.383301	1.614594
3.383789	1.614694
3.384277	1.615008
3.384766	1.614934
3.385254	1.614684
3.385742	1.614874
3.386230	1.614643
3.386719	1.614893
3.387207	1.614890
3.387695	1.614898
3.388184	1.614894
3.388672	1.614832
3.389160	1.614773
3.389648	1.614889
3.390137	1.614970
3.390625	1.614945
3.391113	1.615066
3.391602	1.614730
3.392090	1.614962
3.392578	1.614407
3.393066	1.614843
3.393555	1.614763
3.394043	1.614790
3.394531	1.614685
3.395020	1.614843
3.395508	1.614845
3.395996	1.615034
3.396484	1.614912
3.396973	1.614955
3.397461	1.614692
3.397949	1.615102
3.398437	1.614958
3.398926	1.614921
3.399414	1.615161
3.399902	1.615079
3.400391	1.614827
3.400879	1.614802
3.401367	1.615050
3.401855	1.614787
3.402344	1.614913
3.402832	1.614934
3.403320	1.614712
3.403809	1.614596
3.404297	1.615047
3.404785	1.614721
3.405273	1.614882
3.405762	1.614741
3.406250	1.614664
3.406738	1.614784
3.407227	1.614949
3.407715	1.614809
3.408203	1.615061
3.408691	1.614697
3.409180	1.614970
3.409668	1.614695
3.410156	1.614588
3.410645	1.614749
3.411133	1.614717
3.411621	1.614718
3.412109	1.614663
3.412598	1.614712
3.413086	1.614597
3.413574	1.614821
3.414062	1.614866
3.414551	1.614543
3.415039	1.614493
3.415527	1.614980
3.416016	1.614624
3.416504	1.614816
3.416992	1.615023
3.417480	1.614881
3.417969	1.614635
3.418457	1.614834
3.418945	1.614928
3.419434	1.615089
3.419922	1.614867
3.420410	1.614965
3.420898	1.614679
3.421387	1.614774
3.421875	1.614729
3.422363	1.614765
3.422852	1.614827
3.423340	1.614658
3.423828	1.614547
3.424316	1.614594
3.424805	1.614609
3.425293	1.614804
3.425781	1.614588
3.426270	1.614455
3.426758	1.614592
3.427246	1.614618
3.427734	1.614475
3.428223	1.614665
3.428711	1.614433
3.429199	1.614700
3.429687	1.614690
3.430176	1.614511
3.430664	1.614752
3.431152	1.614451
3.431641	1.614483
3.432129	1.614420
3.432617	1.614491
3.433105	1.614429
3.433594	1.614519
3.434082	1.614793
3.434570	1.614453
3.435059	1.614415
3.435547	1.614344
3.436035	1.614441
3.436523	1.614388
3.437012	1.614482
3.437500	1.614511
3.437988	1.614469
3.438477	1.614422
3.438965	1.614406
3.439453	1.614498
3.439941	1.614577
3.440430	1.614287
3.440918	1.614284
3.441406	1.614221
3.441895	1.614475
3.442383	1.614502
3.442871	1.614428
3.443359	1.614321
3.443848	1.614400
3.444336	1.614562
3.444824	1.614732
3.445312	1.614563
3.445801	1.614810
3.446289	1.614600
3.446777	1.614408
3.447266	1.614610
3.447754	1.614485
3.448242	1.614718
3.448730	1.614572
3.449219	1.614683
3.449707	1.614912
3.450195	1.614222
3.450684	1.614583
3.451172	1.614656
3.451660	1.614581
3.452148	1.614417
3.452637	1.614284
3.453125	1.614633
3.453613	1.614601
3.454102	1.614823
3.454590	1.614561
3.455078	1.614413
3.455566	1.614517
3.456055	1.614629
3.456543	1.614815
3.457031	1.614636
3.457520	1.614735
3.458008	1.614683
3.458496	1.614447
3.458984	1.614655
3.459473	1.614517
3.459961	1.614798
3.460449	1.614782
3.460937	1.614635
3.461426	1.614671
3.461914	1.614524
3.462402	1.614699
3.462891	1.614636
3.463379	1.614749
3.463867	1.614489
3.464355	1.614727
3.464844	1.614921
3.465332	1.614800
3.465820	1.614694
3.466309	1.614834
3.466797	1.614665
3.467285	1.614849
3.467773	1.614780
3.468262	1.614785
3.468750	1.614861
3.469238	1.614785
3.469727	1.614798
3.470215	1.614515
3.470703	1.614676
3.471191	1.614777
3.471680	1.614850
3.472168	1.614748
3.472656	1.614718
3.473145	1.614644
3.473633	1.614862
3.474121	1.614892
3.474609	1.614804
3.475098	1.614879
3.475586	1.614749
3.476074	1.614849
3.476562	1.614810
3.477051	1.614981
3.477539	1.614997
3.478027	1.614965
3.478516	1.614777
3.479004	1.614919
3.479492	1.614963
3.479980	1.615073
3.480469	1.615111
3.480957	1.614962
3.481445	1.615209
3.481934	1.615030
3.482422	1.615142
3.482910	1.614807
3.483398	1.615028
3.483887	1.615081
3.484375	1.614868
3.484863	1.615140
3.485352	1.615244
3.485840	1.615164
3.486328	1.615338
3.486816	1.615286
3.487305	1.615064
3.487793	1.615193
3.488281	1.615222
3.488770	1.615305
3.489258	1.615175
3.489746	1.615181
3.490234	1.614838
3.490723	1.615059
3.491211	1.615324
3.491699	1.615130
3.492187	1.615269
3.492676	1.614965
3.493164	1.615241
3.493652	1.615163
3.494141	1.615167
3.494629	1.615150
3.495117	1.614951
3.495605	1.615003
3.496094	1.614888
3.496582	1.615217
3.497070	1.614964
3.497559	1.615397
3.498047	1.615255
3.498535	1.615152
3.499023	1.615148
3.499512	1.615161
3.500000	1.615279
3.500488	1.615336
3.500977	1.615297
3.501465	1.614754
3.501953	1.615183
3.502441	1.614935
3.502930	1.615130
3.503418	1.615108
3.503906	1.615303
3.504395	1.615149
3.504883	1.615057
3.505371	1.615076
3.505859	1.615060
3.506348	1.615035
3.506836	1.614920
3.507324	1.614926
3.507812	1.614943
3.508301	1.615126
3.508789	1.614761
3.509277	1.614873
3.509766	1.614952
3.510254	1.614969
3.510742	1.614667
3.511230	1.615213
3.511719	1.615202
3.512207	1.615151
3.512695	1.615067
3.513184	1.614870
3.513672	1.615029
3.514160	1.615142
3.514648	1.615174
3.515137	1.614870
3.515625	1.615005
3.516113	1.614842
3.516602	1.614728
3.517090	1.614938
3.517578	1.614954
3.518066	1.614842
3.518555	1.614756
3.519043	1.614706
3.519531	1.614737
3.520020	1.615020
3.520508	1.614730
3.520996	1.614696
3.521484	1.615125
3.521973	1.614954
3.522461	1.614918
3.522949	1.614904
3.523437	1.614851
3.523926	1.614923
3.524414	1.614884
3.524902	1.614713
3.525391	1.614740
3.525879	1.614774
3.526367	1.615020
3.526855	1.615098
3.527344	1.614737
3.527832	1.614774
3.528320	1.614773
3.528809	1.614829
3.529297	1.614895
3.529785	1.614826
3.530273	1.614782
3.530762	1.614613
3.531250	1.614695
3.531738	1.614741
3.532227	1.614966
3.532715	1.614694
3.533203	1.614957
3.533691	1.614757
3.534180	1.614854
3.534668	1.614931
3.535156	1.614923
3.535645	1.614971
3.536133	1.614557
3.536621	1.614693
3.537109	1.614797
3.537598	1.614921
3.538086	1.614830
3.538574	1.615065
3.539062	1.614931
3.539551	1.615036
3.540039	1.615022
3.540527	1.615094
3.541016	1.615075
3.541504	1.614888
3.541992	1.614871
3.542480	1.615038
3.542969	1.614975
3.543457	1.615057
3.543945	1.614913
3.544434	1.614832
3.544922	1.614889
3.545410	1.614777
3.545898	1.615027
3.546387	1.615090
3.546875	1.615091
3.547363	1.614958
3.547852	1.615189
3.548340	1.615209
3.548828	1.615044
3.549316	1.615151
3.549805	1.615279
3.550293	1.615185
3.550781	1.615045
3.551270	1.614973
3.551758	1.615008
3.552246	1.615187
3.552734	1.614874
3.553223	1.614876
3.553711	1.614875
3.554199	1.614743
3.554687	1.614914
3.555176	1.614841
3.555664	1.614862
3.556152	1.614867
3.556641	1.614888
3.557129	1.614929
3.557617	1.615097
3.558105	1.614998
3.558594	1.615099
3.559082	1.615275
3.559570	1.615048
3.560059	1.615191
3.560547	1.614954
3.561035	1.614992
3.561523	1.615020
3.562012	1.614915
3.562500	1.614839
3.562988	1.615074
3.563477	1.614884
3.563965	1.614981
3.564453	1.615144
3.564941	1.614968
3.565430	1.615341
3.565918	1.615050
3.566406	1.615010
3.566895	1.615004
3.567383	1.615043
3.567871	1.614939
3.568359	1.614812
3.568848	1.615033
3.569336	1.615037
3.569824	1.615039
3.570312	1.615141
3.570801	1.615227
3.571289	1.615196
3.571777	1.615044
3.572266	1.615169
3.572754	1.615217
3.573242	1.615070
3.573730	1.615235
3.574219	1.615077
3.574707	1.615031
3.575195	1.615229
3.575684	1.615331
3.576172	1.615208
3.576660	1.615166
3.577148	1.615047
3.577637	1.615249
3.578125	1.615358
3.578613	1.615482
3.579102	1.615314
3.579590	1.615355
3.580078	1.615267
3.580566	1.615355
3.581055	1.615526
3.581543	1.615405
3.582031	1.615457
3.582520	1.615342
3.583008	1.615288
3.583496	1.615169
3.583984	1.615492
3.584473	1.614972
3.584961	1.615395
3.585449	1.614846
3.585937	1.615142
3.586426	1.614982
3.586914	1.615302
3.587402	1.614831
3.587891	1.615183
3.588379	1.615084
3.588867	1.615113
3.589355	1.615477
3.589844	1.615245
3.590332	1.614975
3.590820	1.615120
3.591309	1.615224
3.591797	1.615047
3.592285	1.615224
3.592773	1.615212
3.593262	1.615038
3.593750	1.614992
3.594238	1.615121
3.594727	1.614849
3.595215	1.615170
3.595703	1.615225
3.596191	1.615166
3.596680	1.615061
3.597168	1.615046
3.597656	1.615072
3.598145	1.615200
3.598633	1.615194
3.599121	1.615427
3.599609	1.615260
3.600098	1.615192
3.600586	1.614964
3.601074	1.615058
3.601562	1.615452
3.602051	1.615038
3.602539	1.615089
3.603027	1.615093
3.603516	1.615072
3.604004	1.615145
3.604492	1.614814
3.604980	1.615097
3.605469	1.615009
3.605957	1.615039
3.606445	1.615387
3.606934	1.615198
3.607422	1.614817
3.607910	1.615037
3.608398	1.615142
3.608887	1.615217
3.609375	1.615148
3.609863	1.615218
3.610352	1.615493
3.610840	1.614967
3.611328	1.615036
3.611816	1.614931
3.612305	1.614906
3.612793	1.615063
3.613281	1.614957
3.613770	1.615193
3.614258	1.614990
3.614746	1.614906
3.615234	1.614813
3.615723	1.614990
3.616211	1.615077
3.616699	1.614849
3.617187	1.614692
3.617676	1.614668
3.618164	1.614995
3.618652	1.614726
3.619141	1.614867
3.619629	1.615069
3.620117	1.614882
3.620605	1.614864
3.621094	1.614788
3.621582	1.614924
3.622070	1.614838
3.622559	1.614837
3.623047	1.614806
3.623535	1.614816
3.624023	1.614816
3.624512	1.614764
3.625000	1.614984
3.625488	1.614721
3.625977	1.614369
3.626465	1.614511
3.626953	1.614814
3.627441	1.614688
3.627930	1.614713
3.628418	1.614931
3.628906	1.614675
3.629395	1.614915
3.629883	1.614862
3.630371	1.614791
3.630859	1.614812
3.631348	1.614589
3.631836	1.614700
3.632324	1.614723
3.632812	1.614657
3.633301	1.614755
3.633789	1.614945
3.634277	1.614659
3.634766	1.615041
3.635254	1.614924
3.635742	1.614755
3.636230	1.614797
3.636719	1.614755
3.637207	1.614744
3.637695	1.614582
3.638184	1.614579
3.638672	1.614559
3.639160	1.614838
3.639648	1.614893
3.640137	1.614607
3.640625	1.614557
3.641113	1.614849
3.641602	1.614816
3.642090	1.614712
3.642578	1.614781
3.643066	1.614405
3.643555	1.614743
3.644043	1.614560
3.644531	1.614613
3.645020	1.614689
3.645508	1.614690
3.645996	1.614589
3.646484	1.614683
3.646973	1.614802
3.647461	1.614727
3.647949	1.614858
3.648437	1.614516
3.648926	1.614708
3.649414	1.614651
3.649902	1.614572
3.650391	1.614746
3.650879	1.614838
3.651367	1.614762
3.651855	1.614754
3.652344	1.614681
3.652832	1.614744
3.653320	1.614706
3.653809	1.614740
3.654297	1.614740
3.654785	1.614757
3.655273	1.614706
3.655762	1.615033
3.656250	1.615025
3.656738	1.614478
3.657227	1.614711
3.657715	1.614571
3.658203	1.614926
3.658691	1.614849
3.659180	1.615126
3.659668	1.614992
3.660156	1.614787
3.660645	1.614825
3.661133	1.614967
3.661621	1.614962
3.662109	1.614855
3.662598	1.614916
3.663086	1.615010
3.663574	1.614761
3.664062	1.614931
3.664551	1.614833
3.665039	1.614759
3.665527	1.614818
3.666016	1.614690
3.666504	1.614747
3.666992	1.614784
3.667480	1.615058
3.667969	1.614771
3.668457	1.615074
3.668945	1.614838
3.669434	1.615147
3.669922	1.615034
3.670410	1.614939
3.670898	1.614903
3.671387	1.614928
3.671875	1.614945
3.672363	1.614885
3.672852	1.614825
3.673340	1.614697
3.673828	1.615026
3.674316	1.614860
3.674805	1.615111
3.675293	1.614830
3.675781	1.615003
3.676270	1.615235
3.676758	1.614924
3.677246	1.615200
3.677734	1.614987
3.678223	1.614906
3.678711	1.614903
3.679199	1.615237
3.679687	1.615059
3.680176	1.615067
3.680664	1.615013
3.681152	1.615020
3.681641	1.615097
3.682129	1.615175
3.682617	1.614969
3.683105	1.615023
3.683594	1.614898
3.684082	1.615012
3.684570	1.614995
3.685059	1.614892
3.685547	1.614997
3.686035	1.615040
3.686523	1.614843
3.687012	1.614899
3.687500	1.615126
3.687988	1.614824
3.688477	1.615300
3.688965	1.615068
3.689453	1.614995
3.689941	1.614940
3.690430	1.615187
3.690918	1.615323
3.691406	1.615035
3.691895	1.615014
3.692383	1.615350
3.692871	1.614942
3.693359	1.615173
3.693848	1.614993
3.694336	1.614953
3.694824	1.615138
3.695312	1.614879
3.695801	1.615280
3.696289	1.615165
3.696777	1.615103
3.697266	1.615180
3.697754	1.615174
3.698242	1.615087
3.698730	1.615184
3.699219	1.615144
3.699707	1.615172
3.700195	1.615135
3.700684	1.615031
3.701172	1.615048
3.701660	1.614979
3.702148	1.615243
3.702637	1.614901
3.703125	1.615116
3.703613	1.615020
3.704102	1.615177
3.704590	1.614975
3.705078	1.614957
3.705566	1.615219
3.706055	1.614951
3.706543	1.615050
3.707031	1.614814
3.707520	1.615206
3.708008	1.615133
3.708496	1.615136
3.708984	1.615335
3.709473	1.615036
3.709961	1.615198
3.710449	1.615010
3.710937	1.615260
3.711426	1.615233
3.711914	1.615034
3.712402	1.614969
3.712891	1.615048
3.713379	1.614992
3.713867	1.615050
3.714355	1.614921
3.714844	1.615111
3.715332	1.614847
3.715820	1.614948
3.716309	1.614774
3.716797	1.615067
3.717285	1.615143
3.717773	1.615089
3.718262	1.614995
3.718750	1.614911
3.719238	1.615027
3.719727	1.614942
3.720215	1.615089
3.720703	1.614915
3.721191	1.615123
3.721680	1.615130
3.722168	1.614937
3.722656	1.615123
3.723145	1.615062
3.723633	1.615054
3.724121	1.615052
3.724609	1.615181
3.725098	1.614566
3.725586	1.614924
3.726074	1.614904
3.726562	1.614755
3.727051	1.614820
3.727539	1.614683
3.728027	1.614724
3.728516	1.614777
3.729004	1.614774
3.729492	1.614967
3.729980	1.614859
3.730469	1.614741
3.730957	1.614671
3.731445	1.615051
3.731934	1.614870
3.732422	1.614969
3.732910	1.614773
3.733398	1.614412
3.733887	1.614809
3.734375	1.614807
3.734863	1.614873
3.735352	1.614784
3.735840	1.614744
3.736328	1.614975
3.736816	1.614918
3.737305	1.614775
3.737793	1.614794
3.738281	1.614633
3.738770	1.614658
3.739258	1.614734
3.739746	1.614863
3.740234	1.614763
3.740723	1.614894
3.741211	1.614687
3.741699	1.614394
3.742187	1.614670
3.742676	1.614413
3.743164	1.614814
3.743652	1.614716
3.744141	1.614553
3.744629	1.614988
3.745117	1.614696
3.745605	1.614809
3.746094	1.614552
3.746582	1.614868
3.747070	1.614387
3.747559	1.614594
3.748047	1.614242
3.748535	1.614671
3.749023	1.614579
3.749512	1.614696
3.750000	1.614550
3.750488	1.614545
3.750977	1.614736
3.751465	1.614629
3.751953	1.614654
3.752441	1.614399
3.752930	1.614402
3.753418	1.614724
3.753906	1.614482
3.754395	1.614577
3.754883	1.614701
3.755371	1.614214
3.755859	1.614488
3.756348	1.614449
3.756836	1.614528
3.757324	1.614422
3.757812	1.614534
3.758301	1.614584
3.758789	1.614413
3.759277	1.614441
3.759766	1.614611
3.760254	1.614417
3.760742	1.614803
3.761230	1.614405
3.761719	1.614732
3.762207	1.614640
3.762695	1.614650
3.763184	1.614553
3.763672	1.614764
3.764160	1.614802
3.764648	1.614602
3.765137	1.614549
3.765625	1.614509
3.766113	1.614700
3.766602	1.614537
3.767090	1.614549
3.767578	1.614377
3.768066	1.614610
3.768555	1.614558
3.769043	1.614687
3.769531	1.614559
3.770020	1.614506
3.770508	1.614560
3.770996	1.614657
3.771484	1.614612
3.771973	1.614536
3.772461	1.614694
3.772949	1.614544
3.773437	1.614397
3.773926	1.614549
3.774414	1.614541
3.774902	1.614576
3.775391	1.614480
3.775879	1.614480
3.776367	1.614533
3.776855	1.614600
3.777344	1.614755
3.777832	1.614696
3.778320	1.614752
3.778809	1.614859
3.779297	1.614609
3.779785	1.614806
3.780273	1.614748
3.780762	1.614702
3.781250	1.614749
3.781738	1.614752
3.782227	1.614649
3.782715	1.614669
3.783203	1.614701
3.783691	1.614453
3.784180	1.614666
3.784668	1.614511
3.785156	1.614536
3.785645	1.614618
3.786133	1.614679
3.786621	1.614554
3.787109	1.614744
3.787598	1.614562
3.788086	1.614829
3.788574	1.614579
3.789062	1.614971
3.789551	1.615004
3.790039	1.615041
3.790527	1.614958
3.791016	1.614950
3.791504	1.614884
3.791992	1.614722
3.792480	1.615046
3.792969	1.614660
3.793457	1.615003
3.793945	1.614968
3.794434	1.615089
3.794922	1.615284
3.795410	1.614611
3.795898	1.615036
3.796387	1.614816
3.796875	1.614748
3.797363	1.614624
3.797852	1.615125
3.798340	1.614874
3.798828	1.614871
3.799316	1.614901
3.799805	1.614942
3.800293	1.614870
3.800781	1.614892
3.801270	1.614906
3.801758	1.614945
3.802246	1.614584
3.802734	1.615009
3.803223	1.614943
3.803711	1.615039
3.804199	1.615022
3.804687	1.614761
3.805176	1.614835
3.805664	1.615103
3.806152	1.615092
3.806641	1.615083
3.807129	1.614925
3.807617	1.614937
3.808105	1.615106
3.808594	1.615152
3.809082	1.614982
3.809570	1.615432
3.810059	1.615143
3.810547	1.615184
3.811035	1.615436
3.811523	1.615202
3.812012	1.615435
3.812500	1.615418
3.812988	1.615358
3.813477	1.615352
3.813965	1.615049
3.814453	1.615311
3.814941	1.615373
3.815430	1.615438
3.815918	1.615196
3.816406	1.615233
3.816895	1.615306
3.817383	1.615318
3.817871	1.615445
3.818359	1.615129
3.818848	1.615319
3.819336	1.615367
3.819824	1.615318
3.820312	1.615162
3.820801	1.615282
3.821289	1.615198
3.821777	1.615356
3.822266	1.615296
3.822754	1.615385
3.823242	1.615350
3.823730	1.615836
3.824219	1.615382
3.824707	1.615059
3.825195	1.615249
3.825684	1.614902
3.826172	1.615255
3.826660	1.615100
3.827148	1.615393
3.827637	1.615258
3.828125	1.614950
3.828613	1.615070
3.829102	1.615047
3.829590	1.615340
3.830078	1.615071
3.830566	1.614882
3.831055	1.615105
3.831543	1.614860
3.832031	1.614956
3.832520	1.615029
3.833008	1.614898
3.833496	1.614754
3.833984	1.614953
3.834473	1.614732
3.834961	1.614643
3.835449	1.615133
3.835937	1.614907
3.836426	1.614966
3.836914	1.614777
3.837402	1.614600
3.837891	1.614751
3.838379	1.615025
3.838867	1.614821
3.839355	1.614531
3.839844	1.614932
3.840332	1.614596
3.840820	1.614943
3.841309	1.614838
3.841797	1.614884
3.842285	1.614724
3.842773	1.614507
3.843262	1.614672
3.843750	1.614460
3.844238	1.614688
3.844727	1.614604
3.845215	1.614373
3.845703	1.614657
3.846191	1.614660
3.846680	1.614488
3.847168	1.614590
3.847656	1.614375
3.848145	1.614469
3.848633	1.614442
3.849121	1.614428
3.849609	1.614639
3.850098	1.614487
3.850586	1.614367
3.851074	1.614404
3.851562	1.614271
3.852051	1.614396
3.852539	1.614386
3.853027	1.614362
3.853516	1.614361
3.854004	1.614540
3.854492	1.614370
3.854980	1.614156
3.855469	1.614525
3.855957	1.614502
3.856445	1.614550
3.856934	1.614328
3.857422	1.614887
3.857910	1.614881
3.858398	1.614588
3.858887	1.614644
3.859375	1.614437
3.859863	1.614611
3.860352	1.614484
3.860840	1.614484
3.861328	1.614762
3.861816	1.614525
3.862305	1.614324
3.862793	1.614447
3.863281	1.614455
3.863770	1.614504
3.864258	1.614567
3.864746	1.614470
3.865234	1.614564
3.865723	1.614417
3.866211	1.614465
3.866699	1.614740
3.867187	1.614406
3.867676	1.614826
3.868164	1.614424
3.868652	1.614355
3.869141	1.614538
3.869629	1.614580
3.870117	1.614589
3.870605	1.614602
3.871094	1.614900
3.871582	1.614849
3.872070	1.614489
3.872559	1.614671
3.873047	1.614750
3.873535	1.614738
3.874023	1.614661
3.874512	1.614671
3.875000	1.614650
3.875488	1.614760
3.875977	1.614671
3.876465	1.614787
3.876953	1.614650
3.877441	1.614734
3.877930	1.614756
3.878418	1.614768
3.878906	1.614836
3.879395	1.614748
3.879883	1.614868
3.880371	1.614838
3.880859	1.614657
3.881348	1.615136
3.881836	1.614787
3.882324	1.614545
3.882812	1.614747
3.883301	1.614577
3.883789	1.614797
3.884277	1.614693
3.884766	1.614751
3.885254	1.614866
3.885742	1.614849
3.886230	1.614647
3.886719	1.614928
3.887207	1.614852
3.887695	1.614958
3.888184	1.614884
3.888672	1.614824
3.889160	1.614810
3.889648	1.614791
3.890137	1.615130
3.890625	1.615003
3.891113	1.615028
3.891602	1.615090
3.892090	1.614948
3.892578	1.614975
3.893066	1.614908
3.893555	1.614940
3.894043	1.615119
3.894531	1.614741
3.895020	1.614854
3.895508	1.614918
3.895996	1.614856
3.896484	1.615118
3.896973	1.614627
3.897461	1.614823
3.897949	1.614988
3.898437	1.615023
3.898926	1.614915
3.899414	1.614999
3.899902	1.615000
3.900391	1.614940
3.900879	1.614941
3.901367	1.614921
3.901855	1.615032
3.902344	1.615252
3.902832	1.614778
3.903320	1.615092
3.903809	1.614773
3.904297	1.614852
3.904785	1.615112
3.905273	1.614914
3.905762	1.614889
3.906250	1.614880
3.906738	1.615173
3.907227	1.615306
3.907715	1.615203
3.908203	1.615153
3.908691	1.615204
3.909180	1.615003
3.909668	1.615123
3.910156	1.615393
3.910645	1.615122
3.911133	1.615078
3.911621	1.615343
3.912109	1.614937
3.912598	1.614931
3.913086	1.615219
3.913574	1.615234
3.914062	1.615286
3.914551	1.615073
3.915039	1.615398
3.915527	1.615336
3.916016	1.615299
3.916504	1.615386
3.916992	1.615211
3.917480	1.615117
3.917969	1.615225
3.918457	1.615227
3.918945	1.615252
3.919434	1.615264
3.919922	1.615332
3.920410	1.615068
3.920898	1.615065
3.921387	1.615349
3.921875	1.615204
3.922363	1.615267
3.922852	1.614981
3.923340	1.615303
3.923828	1.614928
3.924316	1.614954
3.924805	1.615026
3.925293	1.615177
3.925781	1.615281
3.926270	1.615007
3.926758	1.615123
3.927246	1.615006
3.927734	1.615176
3.928223	1.615272
3.928711	1.615138
3.929199	1.614921
3.929687	1.615081
3.930176	1.615068
3.930664	1.615119
3.931152	1.615062
3.931641	1.615009
3.932129	1.615045
3.932617	1.614893
3.933105	1.614827
3.933594	1.614985
3.934082	1.614845
3.934570	1.614948
3.935059	1.614816
3.935547	1.614849
3.936035	1.614579
3.936523	1.614971
3.937012	1.614749
3.937500	1.614716
3.937988	1.614863
3.938477	1.614890
3.938965	1.614995
3.939453	1.614968
3.939941	1.615070
3.940430	1.614831
3.940918	1.614966
3.941406	1.614689
3.941895	1.614888
3.942383	1.614710
3.942871	1.614873
3.943359	1.614674
3.943848	1.614693
3.944336	1.614908
3.944824	1.614859
3.945312	1.614910
3.945801	1.614848
3.946289	1.614785
3.946777	1.614874
3.947266	1.614682
3.947754	1.614648
3.948242	1.614798
3.948730	1.614474
3.949219	1.614602
3.949707	1.614630
3.950195	1.614561
3.950684	1.614526
3.951172	1.614859
3.951660	1.614834
3.952148	1.614610
3.952637	1.614331
3.953125	1.614640
3.953613	1.614804
3.954102	1.614849
3.954590	1.614697
3.955078	1.614556
3.955566	1.614453
3.956055	1.614677
3.956543	1.614747
3.957031	1.614606
3.957520	1.614576
3.958008	1.614712
3.958496	1.614676
3.958984	1.614857
3.959473	1.614640
3.959961	1.614792
3.960449	1.614815
3.960937	1.614654
3.961426	1.614517
3.961914	1.614713
3.962402	1.614646
3.962891	1.614463
3.963379	1.614837
3.963867	1.614538
3.964355	1.614983
3.964844	1.614738
3.965332	1.614751
3.965820	1.614687
3.966309	1.614738
3.966797	1.614769
3.967285	1.614656
3.967773	1.614886
3.968262	1.615009
3.968750	1.614685
3.969238	1.614825
3.969727	1.614834
3.970215	1.614908
3.970703	1.614557
3.971191	1.614655
3.971680	1.615054
3.972168	1.614835
3.972656	1.614795
3.973145	1.614774
3.973633	1.614914
3.974121	1.614723
3.974609	1.614804
3.975098	1.614760
3.975586	1.614701
3.976074	1.614784
3.976562	1.614763
3.977051	1.614732
3.977539	1.614689
3.978027	1.614561
3.978516	1.614702
3.979004	1.614595
3.979492	1.614887
3.979980	1.614952
3.980469	1.614854
3.980957	1.614766
3.981445	1.614829
3.981934	1.614788
3.982422	1.614671
3.982910	1.614547
3.983398	1.614845
3.983887	1.614790
3.984375	1.614733
3.984863	1.614524
3.985352	1.614625
3.985840	1.614691
3.986328	1.614795
3.986816	1.614663
3.987305	1.614436
3.987793	1.614910
3.988281	1.614759
3.988770	1.615054
3.989258	1.615062
3.989746	1.615191
3.990234	1.614791
3.990723	1.615004
3.991211	1.615043
3.991699	1.615085
3.992187	1.615085
3.992676	1.614881
3.993164	1.614912
3.993652	1.614810
3.994141	1.615058
3.994629	1.614884
3.995117	1.615054
3.995605	1.614970
3.996094	1.615027
3.996582	1.615206
3.997070	1.615024
3.997559	1.614971
3.998047	1.615101
3.998535	1.614933
3.999023	1.615281
3.999512	1.615126
4.000000	1.615302
4.000488	1.615206
4.000977	1.615050
4.001465	1.615081
4.001953	1.615088
4.002441	1.615183
4.002930	1.615283
4.003418	1.615400
4.003906	1.615476
4.004395	1.615214
4.004883	1.615219
4.005371	1.615273
4.005859	1.615237
4.006348	1.615411
4.006836	1.615272
4.007324	1.615668
4.007812	1.615292
4.008301	1.615415
4.008789	1.615344
4.009277	1.615578
4.009766	1.615551
4.010254	1.615296
4.010742	1.615371
4.011230	1.615521
4.011719	1.615396
4.012207	1.615328
4.012695	1.615222
4.013184	1.615211
4.013672	1.615286
4.014160	1.615252
4.014648	1.615767
4.015137	1.615216
4.015625	1.615249
4.016113	1.615005
4.016602	1.615209
4.017090	1.615490
4.017578	1.615122
4.018066	1.615177
4.018555	1.615346
4.019043	1.615306
4.019531	1.615411
4.020020	1.615569
4.020508	1.615459
4.020996	1.615424
4.021484	1.615562
4.021973	1.615404
4.022461	1.615533
4.022949	1.615502
4.023437	1.615300
4.023926	1.615472
4.024414	1.615640
4.024902	1.615397
4.025391	1.615322
4.025879	1.615465
4.026367	1.615455
4.026855	1.615253
4.027344	1.615330
4.027832	1.615251
4.028320	1.615146
4.028809	1.615349
4.029297	1.615328
4.029785	1.615309
4.030273	1.615030
4.030762	1.615139
4.031250	1.614788
4.031738	1.615211
4.032227	1.615088
4.032715	1.614958
4.033203	1.614707
4.033691	1.615102
4.034180	1.614905
4.034668	1.615043
4.035156	1.614984
4.035645	1.614699
4.036133	1.614899
4.036621	1.614857
4.037109	1.614846
4.037598	1.615133
4.038086	1.614897
4.038574	1.614912
4.039062	1.614821
4.039551	1.614837
4.040039	1.615082
4.040527	1.615039
4.041016	1.615012
4.041504	1.615108
4.041992	1.614769
4.042480	1.614911
4.042969	1.614974
4.043457	1.615051
4.043945	1.614874
4.044434	1.614800
4.044922	1.614774
4.045410	1.614873
4.045898	1.615145
4.046387	1.615097
4.046875	1.614893
4.047363	1.614917
4.047852	1.614909
4.048340	1.614759
4.048828	1.614660
4.049316	1.614981
4.049805	1.614997
4.050293	1.614781
4.050781	1.614826
4.051270	1.614703
4.051758	1.615039
4.052246	1.614852
4.052734	1.615011
4.053223	1.614583
4.053711	1.614849
4.054199	1.614864
4.054687	1.614840
4.055176	1.614807
4.055664	1.614753
4.056152	1.614736
4.056641	1.614814
4.057129	1.614870
4.057617	1.614618
4.058105	1.614885
4.058594	1.614707
4.059082	1.614787
4.059570	1.614849
4.060059	1.614830
4.060547	1.614825
4.061035	1.614861
4.061523	1.614762
4.062012	1.614829
4.062500	1.614671
4.062988	1.614823
4.063477	1.614752
4.063965	1.614478
4.064453	1.614735
4.064941	1.614470
4.065430	1.614533
4.065918	1.614795
4.066406	1.614832
4.066895	1.614785
4.067383	1.614826
4.067871	1.614726
4.068359	1.614709
4.068848	1.614930
4.069336	1.614644
4.069824	1.614910
4.070312	1.614633
4.070801	1.614647
4.071289	1.615014
4.071777	1.614859
4.072266	1.614926
4.072754	1.614757
4.073242	1.614920
4.073730	1.614880
4.074219	1.614505
4.074707	1.614873
4.075195	1.614899
4.075684	1.614790
4.076172	1.614737
4.076660	1.614909
4.077148	1.614697
4.077637	1.614955
4.078125	1.615003
4.078613	1.614829
4.079102	1.614962
4.079590	1.614725
4.080078	1.615025
4.080566	1.614751
4.081055	1.615038
4.081543	1.614838
4.082031	1.614925
4.082520	1.614755
4.083008	1.614668
4.083496	1.614974
4.083984	1.614514
4.084473	1.614607
4.084961	1.614471
4.085449	1.614841
4.085937	1.614803
4.086426	1.614857
4.086914	1.614934
4.087402	1.614807
4.087891	1.614854
4.088379	1.614713
4.088867	1.614843
4.089355	1.615086
4.089844	1.614992
4.090332	1.615164
4.090820	1.615047
4.091309	1.614772
4.091797	1.615142
4.092285	1.615205
4.092773	1.615130
4.093262	1.614940
4.093750	1.614910
4.094238	1.615231
4.094727	1.614710
4.095215	1.614938
4.095703	1.614879
4.096191	1.614665
4.096680	1.614943
4.097168	1.614876
4.097656	1.614753
4.098145	1.614921
4.098633	1.614987
4.099121	1.615029
4.099609	1.615020
4.100098	1.614899
4.100586	1.615163
4.101074	1.615140
4.101562	1.615046
4.102051	1.615114
4.102539	1.614976
4.103027	1.614826
4.103516	1.614970
4.104004	1.614792
4.104492	1.615028
4.104980	1.614828
4.105469	1.614906
4.105957	1.615053
4.106445	1.614930
4.106934	1.614879
4.107422	1.614932
4.107910	1.614960
4.108398	1.614593
4.108887	1.614748
4.109375	1.615089
4.109863	1.615044
4.110352	1.614843
4.110840	1.614810
4.111328	1.614912
4.111816	1.614762
4.112305	1.615087
4.112793	1.614824
4.113281	1.614646
4.113770	1.614808
4.114258	1.614791
4.114746	1.614838
4.115234	1.614735
4.115723	1.615296
4.116211	1.614906
4.116699	1.614755
4.117187	1.614581
4.117676	1.614813
4.118164	1.614728
4.118652	1.614871
4.119141	1.614771
4.119629	1.614793
4.120117	1.614827
4.120605	1.614910
4.121094	1.614931
4.121582	1.614808
4.122070	1.614896
4.122559	1.614939
4.123047	1.614807
4.123535	1.614577
4.124023	1.614837
4.124512	1.614940
4.125000	1.614475
4.125488	1.614716
4.125977	1.614646
4.126465	1.614826
4.126953	1.614637
4.127441	1.614752
4.127930	1.615026
4.128418	1.614529
4.128906	1.614604
4.129395	1.614736
4.129883	1.614685
4.130371	1.614805
4.130859	1.614635
4.131348	1.614557
4.131836	1.614725
4.132324	1.614973
4.132812	1.614743
4.133301	1.614420
4.133789	1.614691
4.134277	1.614441
4.134766	1.614752
4.135254	1.614778
4.135742	1.614923
4.136230	1.614878
4.136719	1.614777
4.137207	1.614665
4.137695	1.614631
4.138184	1.614810
4.138672	1.614734
4.139160	1.614848
4.139648	1.614846
4.140137	1.614756
4.140625	1.614827
4.141113	1.614857
4.141602	1.614841
4.142090	1.614742
4.142578	1.614670
4.143066	1.614628
4.143555	1.614666
4.144043	1.614582
4.144531	1.614799
4.145020	1.614832
4.145508	1.614731
4.145996	1.614862
4.146484	1.614540
4.146973	1.614714
4.147461	1.614978
4.147949	1.614870
4.148437	1.614724
4.148926	1.614539
4.149414	1.615119
4.149902	1.614860
4.150391	1.614617
4.150879	1.614843
4.151367	1.614762
4.151855	1.614727
4.152344	1.614569
4.152832	1.614834
4.153320	1.614732
4.153809	1.614557
4.154297	1.614451
4.154785	1.614530
4.155273	1.614562
4.155762	1.614741
4.156250	1.614729
4.156738	1.614694
4.157227	1.614502
4.157715	1.614511
4.158203	1.614672
4.158691	1.614617
4.159180	1.614677
4.159668	1.614849
4.160156	1.614502
4.160645	1.614453
4.161133	1.614502
4.161621	1.614668
4.162109	1.614702
4.162598	1.614167
4.163086	1.614521
4.163574	1.614549
4.164062	1.614630
4.164551	1.614741
4.165039	1.614521
4.165527	1.614737
4.166016	1.614663
4.166504	1.614511
4.166992	1.614616
4.167480	1.614769
4.167969	1.614716
4.168457	1.614737
4.168945	1.614673
4.169434	1.614761
4.169922	1.614709
4.170410	1.614812
4.170898	1.614760
4.171387	1.614356
4.171875	1.614590
4.172363	1.614474
4.172852	1.614559
4.173340	1.614416
4.173828	1.614563
4.174316	1.614613
4.174805	1.614411
4.175293	1.614577
4.175781	1.614610
4.176270	1.614523
4.176758	1.614682
4.177246	1.614606
4.177734	1.614727
4.178223	1.614561
4.178711	1.614699
4.179199	1.614705
4.179687	1.614640
4.180176	1.614608
4.180664	1.614781
4.181152	1.614722
4.181641	1.614724
4.182129	1.614990
4.182617	1.615209
4.183105	1.614490
4.183594	1.614737
4.184082	1.614677
4.184570	1.614866
4.185059	1.614919
4.185547	1.614851
4.186035	1.614984
4.186523	1.614851
4.187012	1.614948
4.187500	1.614770
4.187988	1.614968
4.188477	1.614949
4.188965	1.614717
4.189453	1.615061
4.189941	1.615000
4.190430	1.615089
4.190918	1.615131
4.191406	1.614995
4.191895	1.615027
4.192383	1.615032
4.192871	1.614962
4.193359	1.614925
4.193848	1.615129
4.194336	1.614881
4.194824	1.615001
4.195312	1.614930
4.195801	1.615030
4.196289	1.614979
4.196777	1.615310
4.197266	1.614925
4.197754	1.615041
4.198242	1.615131
4.198730	1.615177
4.199219	1.615167
4.199707	1.615031
4.200195	1.615081
4.200684	1.614962
4.201172	1.615197
4.201660	1.615217
4.202148	1.615266
4.202637	1.615467
4.203125	1.615000
4.203613	1.615015
4.204102	1.615187
4.204590	1.615214
4.205078	1.615388
4.205566	1.615348
4.206055	1.615061
4.206543	1.615137
4.207031	1.615276
4.207520	1.615270
4.208008	1.615111
4.208496	1.615114
4.208984	1.615058
4.209473	1.615245
4.209961	1.614827
4.210449	1.615274
4.210937	1.615303
4.211426	1.615274
4.211914	1.615411
4.212402	1.615095
4.212891	1.615007
4.213379	1.615021
4.213867	1.615246
4.214355	1.615177
4.214844	1.615044
4.215332	1.615002
4.215820	1.614988
4.216309	1.614935
4.216797	1.615093
4.217285	1.614737
4.217773	1.614923
4.218262	1.614868
4.218750	1.615068
4.219238	1.614832
4.219727	1.615405
4.220215	1.614946
4.220703	1.615137
4.221191	1.615074
4.221680	1.615171
4.222168	1.615054
4.222656	1.614964
4.223145	1.615017
4.223633	1.614988
4.224121	1.614888
4.224609	1.614907
4.225098	1.614977
4.225586	1.614760
4.226074	1.615051
4.226562	1.614607
4.227051	1.614885
4.227539	1.614801
4.228027	1.614971
4.228516	1.614729
4.229004	1.614966
4.229492	1.614870
4.229980	1.614953
4.230469	1.614774
4.230957	1.614971
4.231445	1.614738
4.231934	1.614835
4.232422	1.614731
4.232910	1.614546
4.233398	1.614553
4.233887	1.614777
4.234375	1.614766
4.234863	1.614680
4.235352	1.614559
4.235840	1.614760
4.236328	1.614824
4.236816	1.614834
4.237305	1.614813
4.237793	1.614857
4.238281	1.614515
4.238770	1.614890
4.239258	1.614976
4.239746	1.614777
4.240234	1.615053
4.240723	1.614810
4.241211	1.614673
4.241699	1.614491
4.242187	1.614815
4.242676	1.614703
4.243164	1.614654
4.243652	1.614644
4.244141	1.614791
4.244629	1.614577
4.245117	1.614844
4.245605	1.614717
4.246094	1.614705
4.246582	1.614481
4.247070	1.614663
4.247559	1.614392
4.248047	1.614774
4.248535	1.614608
4.249023	1.614727
4.249512	1.614569
4.250000	1.614573
4.250488	1.614632
4.250977	1.614378
4.251465	1.614687
4.251953	1.614577
4.252441	1.614591
4.252930	1.614766
4.253418	1.614543
4.253906	1.614443
4.254395	1.614558
4.254883	1.614645
4.255371	1.614340
4.255859	1.614093
4.256348	1.614572
4.256836	1.614587
4.257324	1.614470
4.257812	1.614356
4.258301	1.614381
4.258789	1.614187
4.259277	1.614760
4.259766	1.614616
4.260254	1.614419
4.260742	1.614361
4.261230	1.614425
4.261719	1.614485
4.262207	1.614400
4.262695	1.614214
4.263184	1.614219
4.263672	1.614439
4.264160	1.614176
4.264648	1.614534
4.265137	1.614175
4.265625	1.614561
4.266113	1.614306
4.266602	1.614490
4.267090	1.614245
4.267578	1.614179
4.268066	1.614258
4.268555	1.614244
4.269043	1.614417
4.269531	1.614353
4.270020	1.614516
4.270508	1.614217
4.270996	1.614257
4.271484	1.614464
4.271973	1.614367
4.272461	1.614316
4.272949	1.614148
4.273437	1.614359
4.273926	1.614273
4.274414	1.614439
4.274902	1.614445
4.275391	1.614419
4.275879	1.614313
4.276367	1.614273
4.276855	1.614719
4.277344	1.614256
4.277832	1.614243
4.278320	1.614491
4.278809	1.614201
4.279297	1.614165
4.279785	1.614481
4.280273	1.614627
4.280762	1.614427
4.281250	1.614363
4.281738	1.614405
4.282227	1.614156
4.282715	1.614326
4.283203	1.614434
4.283691	1.614475
4.284180	1.614346
4.284668	1.614433
4.285156	1.614417
4.285645	1.614594
4.286133	1.614402
4.286621	1.614629
4.287109	1.614568
4.287598	1.614676
4.288086	1.614593
4.288574	1.614458
4.289062	1.614764
4.289551	1.614689
4.290039	1.614705
4.290527	1.614577
4.291016	1.614671
4.291504	1.614823
4.291992	1.614769
4.292480	1.614688
4.292969	1.614715
4.293457	1.614522
4.293945	1.614632
4.294434	1.614891
4.294922	1.614840
4.295410	1.614780
4.295898	1.614778
4.296387	1.614618
4.296875	1.614752
4.297363	1.614818
4.297852	1.614863
4.298340	1.614588
4.298828	1.614475
4.299316	1.614824
4.299805	1.614828
4.300293	1.614846
4.300781	1.614887
4.301270	1.614751
4.301758	1.614640
4.302246	1.614852
4.302734	1.614860
4.303223	1.614832
4.303711	1.614917
4.304199	1.615001
4.304687	1.614614
4.305176	1.614777
4.305664	1.614742
4.306152	1.614817
4.306641	1.615065
4.307129	1.614910
4.307617	1.614848
4.308105	1.614859
4.308594	1.614937
4.309082	1.614823
4.309570	1.614883
4.310059	1.615075
4.310547	1.614545
4.311035	1.614751
4.311523	1.614750
4.312012	1.614892
4.312500	1.614674
4.312988	1.615023
4.313477	1.614751
4.313965	1.615152
4.314453	1.614852
4.314941	1.614863
4.315430	1.614954
4.315918	1.614821
4.316406	1.615049
4.316895	1.614770
4.317383	1.614935
4.317871	1.614687
4.318359	1.614965
4.318848	1.614848
4.319336	1.614944
4.319824	1.614915
4.320312	1.614980
4.320801	1.615029
4.321289	1.614802
4.321777	1.614841
4.322266	1.614821
4.322754	1.614730
4.323242	1.614751
4.323730	1.614813
4.324219	1.614719
4.324707	1.614660
4.325195	1.614566
4.325684	1.614690
4.326172	1.614609
4.326660	1.614741
4.327148	1.614752
4.327637	1.614772
4.328125	1.614691
4.328613	1.614655
4.329102	1.614752
4.329590	1.615051
4.330078	1.615042
4.330566	1.614820
4.331055	1.614546
4.331543	1.614975
4.332031	1.614816
4.332520	1.614849
4.333008	1.614808
4.333496	1.614509
4.333984	1.614583
4.334473	1.614574
4.334961	1.614830
4.335449	1.614810
4.335937	1.614867
4.336426	1.614748
4.336914	1.614657
4.337402	1.614745
4.337891	1.614703
4.338379	1.614784
4.338867	1.614566
4.339355	1.614614
4.339844	1.614607
4.340332	1.614534
4.340820	1.614386
4.341309	1.614850
4.341797	1.614499
4.342285	1.614803
4.342773	1.614530
4.343262	1.614479
4.343750	1.614436
4.344238	1.614500
4.344727	1.614458
4.345215	1.614350
4.345703	1.614269
4.346191	1.614238
4.346680	1.614590
4.347168	1.614444
4.347656	1.614539
4.348145	1.614273
4.348633	1.614537
4.349121	1.614706
4.349609	1.614493
4.350098	1.614551
4.350586	1.614570
4.351074	1.614510
4.351562	1.614427
4.352051	1.614493
4.352539	1.614719
4.353027	1.614395
4.353516	1.614432
4.354004	1.614381
4.354492	1.614039
4.354980	1.614160
4.355469	1.614377
4.355957	1.614376
4.356445	1.614027
4.356934	1.614348
4.357422	1.614224
4.357910	1.614089
4.358398	1.614256
4.358887	1.614145
4.359375	1.614192
4.359863	1.614305
4.360352	1.614178
4.360840	1.614705
4.361328	1.614108
4.361816	1.614120
4.362305	1.614058
4.362793	1.613994
4.363281	1.613971
4.363770	1.614285
4.364258	1.614186
4.364746	1.614218
4.365234	1.614421
4.365723	1.614231
4.366211	1.614298
4.366699	1.614248
4.367187	1.614336
4.367676	1.614170
4.368164	1.613996
4.368652	1.614345
4.369141	1.614414
4.369629	1.614362
4.370117	1.614519
4.370605	1.614368
4.371094	1.614299
4.371582	1.614240
4.372070	1.614304
4.372559	1.614151
4.373047	1.614462
4.373535	1.614424
4.374023	1.614295
4.374512	1.614319
4.375000	1.614470
4.375488	1.614304
4.375977	1.614282
4.376465	1.614349
4.376953	1.614247
4.377441	1.614275
4.377930	1.614396
4.378418	1.614451
4.378906	1.614520
4.379395	1.614481
4.379883	1.614632
4.380371	1.614485
4.380859	1.614317
4.381348	1.614741
4.381836	1.614816
4.382324	1.614701
4.382812	1.614561
4.383301	1.614717
4.383789	1.614660
4.384277	1.614446
4.384766	1.614743
4.385254	1.614704
4.385742	1.614647
4.386230	1.614390
4.386719	1.614722
4.387207	1.614829
4.387695	1.614755
4.388184	1.614755
4.388672	1.614660
4.389160	1.614614
4.389648	1.614913
4.390137	1.614743
4.390625	1.614527
4.391113	1.614699
4.391602	1.614373
4.392090	1.614619
4.392578	1.614603
4.393066	1.614704
4.393555	1.614995
4.394043	1.614760
4.394531	1.614699
4.395020	1.614416
4.395508	1.614816
4.395996	1.614795
4.396484	1.614743
4.396973	1.614827
4.397461	1.614679
4.397949	1.614836
4.398437	1.614801
4.398926	1.615023
4.399414	1.615055
4.399902	1.614784
4.400391	1.614785
4.400879	1.615025
4.401367	1.614864
4.401855	1.615115
4.402344	1.615074
4.402832	1.614965
4.403320	1.615137
4.403809	1.614951
4.404297	1.615294
4.404785	1.615168
4.405273	1.614865
4.405762	1.615075
4.406250	1.614760
4.406738	1.615058
4.407227	1.615201
4.407715	1.615139
4.408203	1.615195
4.408691	1.615062
4.409180	1.615097
4.409668	1.615075
4.410156	1.615143
4.410645	1.615000
4.411133	1.615105
4.411621	1.614829
4.412109	1.614981
4.412598	1.614840
4.413086	1.614774
4.413574	1.614851
4.414062	1.615092
4.414551	1.614918
4.415039	1.615136
4.415527	1.615073
4.416016	1.615102
4.416504	1.615146
4.416992	1.615223
4.417480	1.614940
4.417969	1.614970
4.418457	1.614977
4.418945	1.615229
4.419434	1.615136
4.419922	1.615160
4.420410	1.615065
4.420898	1.614873
4.421387	1.614988
4.421875	1.614929
4.422363	1.615006
4.422852	1.614819
4.423340	1.614667
4.423828	1.614768
4.424316	1.614908
4.424805	1.614893
4.425293	1.614871
4.425781	1.614881
4.426270	1.615293
4.426758	1.614790
4.427246	1.614879
4.427734	1.614951
4.428223	1.614748
4.428711	1.614804
4.429199	1.614805
4.429687	1.614802
4.430176	1.614771
4.430664	1.615035
4.431152	1.614928
4.431641	1.614800
4.432129	1.614730
4.432617	1.614822
4.433105	1.614802
4.433594	1.615274
4.434082	1.614818
4.434570	1.614729
4.435059	1.614643
4.435547	1.614837
4.436035	1.614777
4.436523	1.614890
4.437012	1.614692
4.437500	1.614849
4.437988	1.614679
4.438477	1.614807
4.438965	1.614820
4.439453	1.614825
4.439941	1.614912
4.440430	1.614825
4.440918	1.614680
4.441406	1.614640
4.441895	1.614798
4.442383	1.614723
4.442871	1.614710
4.443359	1.614676
4.443848	1.614630
4.444336	1.614671
4.444824	1.614650
4.445312	1.614838
4.445801	1.614734
4.446289	1.614524
4.446777	1.614749
4.447266	1.614619
4.447754	1.614918
4.448242	1.614770
4.448730	1.614595
4.449219	1.614848
4.449707	1.614977
4.450195	1.614933
4.450684	1.614921
4.451172	1.615074
4.451660	1.614666
4.452148	1.614878
4.452637	1.614829
4.453125	1.615095
4.453613	1.614987
4.454102	1.615094
4.454590	1.614837
4.455078	1.614795
4.455566	1.614607
4.456055	1.615020
4.456543	1.614847
4.457031	1.614726
4.457520	1.614909
4.458008	1.614635
4.458496	1.614848
4.458984	1.614728
4.459473	1.614976
4.459961	1.615053
4.460449	1.614829
4.460937	1.614851
4.461426	1.614941
4.461914	1.614870
4.462402	1.615039
4.462891	1.615027
4.463379	1.614940
4.463867	1.614915
4.464355	1.614702
4.464844	1.615037
4.465332	1.614950
4.465820	1.614982
4.466309	1.615117
4.466797	1.615033
4.467285	1.614870
4.467773	1.615009
4.468262	1.615052
4.468750	1.615128
4.469238	1.614862
4.469727	1.615133
4.470215	1.615066
4.470703	1.615036
4.471191	1.615141
4.471680	1.614991
4.472168	1.615013
4.472656	1.615161
4.473145	1.615277
4.473633	1.615079
4.474121	1.615106
4.474609	1.614912
4.475098	1.614919
4.475586	1.614712
4.476074	1.615187
4.476562	1.615080
4.477051	1.615086
4.477539	1.615203
4.478027	1.615078
4.478516	1.614854
4.479004	1.615225
4.479492	1.615296
4.479980	1.615053
4.480469	1.615129
4.480957	1.614960
4.481445	1.614974
4.481934	1.615060
4.482422	1.615005
4.482910	1.614889
4.483398	1.615054
4.483887	1.614853
4.484375	1.615174
4.484863	1.614983
4.485352	1.615338
4.485840	1.615195
4.486328	1.615277
4.486816	1.615111
4.487305	1.614904
4.487793	1.615173
4.488281	1.615070
4.488770	1.615237
4.489258	1.615107
4.489746	1.615249
4.490234	1.615018
4.490723	1.615122
4.491211	1.614929
4.491699	1.615352
4.492187	1.615257
4.492676	1.614923
4.493164	1.615150
4.493652	1.614785
4.494141	1.615228
4.494629	1.615140
4.495117	1.615019
4.495605	1.614715
4.496094	1.615020
4.496582	1.615051
4.497070	1.615199
4.497559	1.615160
4.498047	1.615043
4.498535	1.615189
4.499023	1.615136
4.499512	1.615349
4.500000	1.615162
4.500488	1.615269
4.500977	1.615106
4.501465	1.615210
4.501953	1.615127
4.502441	1.615214
4.502930	1.615103
4.503418	1.615079
4.503906	1.615244
4.504395	1.615101
4.504883	1.614951
4.505371	1.615292
4.505859	1.615333
4.506348	1.615208
4.506836	1.615145
4.507324	1.615022
4.507812	1.615148
4.508301	1.615014
4.508789	1.615115
4.509277	1.615047
4.509766	1.615131
4.510254	1.615012
4.510742	1.615177
4.511230	1.615388
4.511719	1.615078
4.512207	1.615444
4.512695	1.615256
4.513184	1.615269
4.513672	1.615368
4.514160	1.615405
4.514648	1.615270
4.515137	1.615287
4.515625	1.615126
4.516113	1.615251
4.516602	1.615416
4.517090	1.615344
4.517578	1.615455
4.518066	1.615413
4.518555	1.615268
4.519043	1.615302
4.519531	1.615293
4.520020	1.615450
4.520508	1.615295
4.520996	1.615428
4.521484	1.615375
4.521973	1.615286
4.522461	1.615314
4.522949	1.615409
4.523437	1.615291
4.523926	1.615192
4.524414	1.615319
4.524902	1.615436
4.525391	1.615278
4.525879	1.615393
4.526367	1.615143
4.526855	1.615235
4.527344	1.615183
4.527832	1.615303
4.528320	1.615300
4.528809	1.615383
4.529297	1.615436
4.529785	1.615402
4.530273	1.615336
4.530762	1.615424
4.531250	1.615253
4.531738	1.615440
4.532227	1.615274
4.532715	1.615440
4.533203	1.615402
4.533691	1.615234
4.534180	1.615139
4.534668	1.615347
4.535156	1.615147
4.535645	1.615155
4.536133	1.615200
4.536621	1.615153
4.537109	1.615203
4.537598	1.615053
4.538086	1.615094
4.538574	1.615098
4.539062	1.615099
4.539551	1.615264
4.540039	1.615193
4.540527	1.615062
4.541016	1.615182
4.541504	1.615324
4.541992	1.614898
4.542480	1.615004
4.542969	1.614774
4.543457	1.615111
4.543945	1.615030
4.544434	1.614820
4.544922	1.615018
4.545410	1.614923
4.545898	1.614894
4.546387	1.615005
4.546875	1.614874
4.547363	1.614759
4.547852	1.614977
4.548340	1.614791
4.548828	1.614937
4.549316	1.615084
4.549805	1.615056
4.550293	1.614832
4.550781	1.614669
4.551270	1.614924
4.551758	1.615001
4.552246	1.614997
4.552734	1.614856
4.553223	1.614588
4.553711	1.614914
4.554199	1.614681
4.554687	1.614859
4.555176	1.614884
4.555664	1.614795
4.556152	1.614692
4.556641	1.614807
4.557129	1.614823
4.557617	1.614654
4.558105	1.614774
4.558594	1.614716
4.559082	1.614715
4.559570	1.614788
4.560059	1.614788
4.560547	1.614874
4.561035	1.614779
4.561523	1.614635
4.562012	1.614752
4.562500	1.614577
4.562988	1.614706
4.563477	1.614801
4.563965	1.614874
4.564453	1.614536
4.564941	1.614821
4.565430	1.614638
4.565918	1.614411
4.566406	1.614852
4.566895	1.614759
4.567383	1.614651
4.567871	1.614502
4.568359	1.614813
4.568848	1.615006
4.569336	1.614524
4.569824	1.614792
4.570312	1.614551
4.570801	1.614489
4.571289	1.614724
4.571777	1.614762
4.572266	1.614832
4.572754	1.614704
4.573242	1.614766
4.573730	1.614627
4.574219	1.614694
4.574707	1.614824
4.575195	1.614682
4.575684	1.614890
4.576172	1.614542
4.576660	1.614749
4.577148	1.614698
4.577637	1.615015
4.578125	1.614484
4.578613	1.614838
4.579102	1.614704
4.579590	1.614890
4.580078	1.614586
4.580566	1.614665
4.581055	1.614688
4.581543	1.614611
4.582031	1.614704
4.582520	1.614348
4.583008	1.614818
4.583496	1.614747
4.583984	1.614707
4.584473	1.614624
4.584961	1.614787
4.585449	1.614577
4.585937	1.614660
4.586426	1.614752
4.586914	1.614740
4.587402	1.614456
4.587891	1.614646
4.588379	1.614346
4.588867	1.614602
4.589355	1.614616
4.589844	1.614580
4.590332	1.614533
4.590820	1.614647
4.591309	1.614437
4.591797	1.614475
4.592285	1.614607
4.592773	1.614624
4.593262	1.614518
4.593750	1.614447
4.594238	1.614382
4.594727	1.614544
4.595215	1.614537
4.595703	1.614611
4.596191	1.614774
4.596680	1.614436
4.597168	1.614594
4.597656	1.614435
4.598145	1.614641
4.598633	1.614591
4.599121	1.614723
4.599609	1.614641
4.600098	1.614521
4.600586	1.614951
4.601074	1.614671
4.601562	1.614755
4.602051	1.614718
4.602539	1.614671
4.603027	1.614466
4.603516	1.614857
4.604004	1.614452
4.604492	1.614787
4.604980	1.614541
4.605469	1.614780
4.605957	1.614629
4.606445	1.614810
4.606934	1.614997
4.607422	1.614904
4.607910	1.614748
4.608398	1.614744
4.608887	1.614959
4.609375	1.615005
4.609863	1.615239
4.610352	1.614882
4.610840	1.614897
4.611328	1.614896
4.611816	1.615047
4.612305	1.614811
4.612793	1.614956
4.613281	1.614715
4.613770	1.614941
4.614258	1.615050
4.614746	1.615106
4.615234	1.615107
4.615723	1.615130
4.616211	1.615407
4.616699	1.614993
4.617187	1.615097
4.617676	1.615283
4.618164	1.615181
4.618652	1.615306
4.619141	1.615292
4.619629	1.615223
4.620117	1.615269
4.620605	1.615604
4.621094	1.615311
4.621582	1.615314
4.622070	1.615339
4.622559	1.615184
4.623047	1.615286
4.623535	1.615153
4.624023	1.615410
4.624512	1.615609
4.625000	1.615257
4.625488	1.615316
4.625977	1.615155
4.626465	1.615230
4.626953	1.615321
4.627441	1.615371
4.627930	1.615251
4.628418	1.615369
4.628906	1.615274
4.629395	1.615492
4.629883	1.615367
4.630371	1.615514
4.630859	1.615314
4.631348	1.615647
4.631836	1.615370
4.632324	1.615418
4.632812	1.615414
4.633301	1.615558
4.633789	1.615324
4.634277	1.614992
4.634766	1.615293
4.635254	1.615316
4.635742	1.615230
4.636230	1.615077
4.636719	1.615292
4.637207	1.615117
4.637695	1.615139
4.638184	1.615195
4.638672	1.615250
4.639160	1.615318
4.639648	1.615382
4.640137	1.615220
4.640625	1.615463
4.641113	1.615239
4.641602	1.614915
4.642090	1.615283
4.642578	1.614914
4.643066	1.615190
4.643555	1.615103
4.644043	1.615107
4.644531	1.615062
4.645020	1.615260
4.645508	1.614891
4.645996	1.614976
4.646484	1.615039
4.646973	1.614939
4.647461	1.614942
4.647949	1.614844
4.648437	1.614741
4.648926	1.614635
4.649414	1.614911
4.649902	1.614522
4.650391	1.614863
4.650879	1.614804
4.651367	1.614798
4.651855	1.614647
4.652344	1.614643
4.652832	1.614741
4.653320	1.614800
4.653809	1.614842
4.654297	1.614590
4.654785	1.614706
4.655273	1.614476
4.655762	1.614588
4.656250	1.614775
4.656738	1.614645
4.657227	1.614801
4.657715	1.614624
4.658203	1.614757
4.658691	1.614804
4.659180	1.614856
4.659668	1.614563
4.660156	1.614516
4.660645	1.614650
4.661133	1.614704
4.661621	1.614514
4.662109	1.614553
4.662598	1.614366
4.663086	1.614565
4.663574	1.614272
4.664062	1.614746
4.664551	1.614956
4.665039	1.614538
4.665527	1.614860
4.666016	1.614418
4.666504	1.614474
4.666992	1.614719
4.667480	1.614607
4.667969	1.614365
4.668457	1.614638
4.668945	1.614587
4.669434	1.614640
4.669922	1.614929
4.670410	1.614483
4.670898	1.614748
4.671387	1.614427
4.671875	1.614425
4.672363	1.614344
4.672852	1.614345
4.673340	1.614309
4.673828	1.614461
4.674316	1.614616
4.674805	1.614450
4.675293	1.614829
4.675781	1.614726
4.676270	1.614719
4.676758	1.614602
4.677246	1.614569
4.677734	1.614652
4.678223	1.614276
4.678711	1.614561
4.679199	1.614554
4.679687	1.614646
4.680176	1.614295
4.680664	1.614668
4.681152	1.614505
4.681641	1.614752
4.682129	1.614855
4.682617	1.614439
4.683105	1.614497
4.683594	1.614569
4.684082	1.614571
4.684570	1.614609
4.685059	1.614601
4.685547	1.614474
4.686035	1.614537
4.686523	1.614469
4.687012	1.614547
4.687500	1.614551
4.687988	1.614610
4.688477	1.614628
4.688965	1.614548
4.689453	1.614718
4.689941	1.614569
4.690430	1.614756
4.690918	1.614711
4.691406	1.614697
4.691895	1.614547
4.692383	1.614489
4.692871	1.614619
4.693359	1.614572
4.693848	1.615001
4.694336	1.614949
4.694824	1.614685
4.695312	1.614820
4.695801	1.615032
4.696289	1.614536
4.696777	1.614848
4.697266	1.614697
4.697754	1.614834
4.698242	1.615036
4.698730	1.614900
4.699219	1.615289
4.699707	1.615191
4.700195	1.615032
4.700684	1.614735
4.701172	1.614997
4.701660	1.615008
4.702148	1.614976
4.702637	1.614837
4.703125	1.614760
4.703613	1.615029
4.704102	1.614875
4.704590	1.615104
4.705078	1.614959
4.705566	1.615213
4.706055	1.615147
4.706543	1.614998
4.707031	1.615000
4.707520	1.615208
4.708008	1.615139
4.708496	1.615277
4.708984	1.615154
4.709473	1.615264
4.709961	1.615209
4.710449	1.615257
4.710937	1.615262
4.711426	1.615317
4.711914	1.615117
4.712402	1.615099
4.712891	1.615001
4.713379	1.615192
4.713867	1.614985
4.714355	1.615215
4.714844	1.615022
4.715332	1.614988
4.715820	1.615286
4.716309	1.615159
4.716797	1.615119
4.717285	1.615045
4.717773	1.614982
4.718262	1.615187
4.718750	1.615076
4.719238	1.615518
4.719727	1.615480
4.720215	1.615111
4.720703	1.615144
4.721191	1.615204
4.721680	1.615234
4.722168	1.615310
4.722656	1.615183
4.723145	1.615332
4.723633	1.614815
4.724121	1.614885
4.724609	1.615106
4.725098	1.615130
4.725586	1.615057
4.726074	1.615005
4.726562	1.615186
4.727051	1.615061
4.727539	1.614845
4.728027	1.615161
4.728516	1.614860
4.729004	1.614925
4.729492	1.615098
4.729980	1.615058
4.730469	1.615002
4.730957	1.615325
4.731445	1.615269
4.731934	1.615014
4.732422	1.614927
4.732910	1.615025
4.733398	1.615067
4.733887	1.615061
4.734375	1.615083
4.734863	1.614936
4.735352	1.614852
4.735840	1.614851
4.736328	1.614908
4.736816	1.614768
4.737305	1.614854
4.737793	1.614790
4.738281	1.614888
4.738770	1.614631
4.739258	1.615101
4.739746	1.614835
4.740234	1.614947
4.740723	1.614884
4.741211	1.615056
4.741699	1.614771
4.742187	1.614807
4.742676	1.614755
4.743164	1.614574
4.743652	1.615029
4.744141	1.614716
4.744629	1.614962
4.745117	1.614962
4.745605	1.614979
4.746094	1.615022
4.746582	1.614707
4.747070	1.614696
4.747559	1.614700
4.748047	1.614856
4.748535	1.614744
4.749023	1.614762
4.749512	1.614618
4.750000	1.614703
4.750488	1.614696
4.750977	1.614696
4.751465	1.614821
4.751953	1.614724
4.752441	1.614568
4.752930	1.614763
4.753418	1.614776
4.753906	1.614625
4.754395	1.614789
4.754883	1.614914
4.755371	1.614616
4.755859	1.614652
4.756348	1.614651
4.756836	1.614733
4.757324	1.614803
4.757812	1.614433
4.758301	1.614544
4.758789	1.614494
4.759277	1.614660
4.759766	1.614529
4.760254	1.614734
4.760742	1.614699
4.761230	1.614798
4.761719	1.614719
4.762207	1.614616
4.762695	1.614812
4.763184	1.614523
4.763672	1.614797
4.764160	1.614528
4.764648	1.614510
4.765137	1.614573
4.765625	1.614707
4.766113	1.614676
4.766602	1.614621
4.767090	1.614682
4.767578	1.614709
4.768066	1.614593
4.768555	1.614948
4.769043	1.614741
4.769531	1.614687
4.770020	1.614740
4.770508	1.614591
4.770996	1.614643
4.771484	1.614467
4.771973	1.614725
4.772461	1.614654
4.772949	1.614506
4.773437	1.614455
4.773926	1.614717
4.774414	1.614552
4.774902	1.614373
4.775391	1.614620
4.775879	1.614569
4.776367	1.614525
4.776855	1.614899
4.777344	1.614730
4.777832	1.614607
4.778320	1.614603
4.778809	1.614610
4.779297	1.614828
4.779785	1.614783
4.780273	1.614823
4.780762	1.614824
4.781250	1.614918
4.781738	1.614616
4.782227	1.614971
4.782715	1.614631
4.783203	1.614972
4.783691	1.614840
4.784180	1.614821
4.784668	1.614730
4.785156	1.614630
4.785645	1.614849
4.786133	1.614945
4.786621	1.614666
4.787109	1.614747
4.787598	1.614553
4.788086	1.614582
4.788574	1.614679
4.789062	1.614826
4.789551	1.614657
4.790039	1.614768
4.790527	1.614751
4.791016	1.614512
4.791504	1.614981
4.791992	1.614848
4.792480	1.614955
4.792969	1.614710
4.793457	1.614791
4.793945	1.614779
4.794434	1.614862
4.794922	1.615022
4.795410	1.614967
4.795898	1.614733
4.796387	1.614829
4.796875	1.614992
4.797363	1.615018
4.797852	1.615114
4.798340	1.615022
4.798828	1.614860
4.799316	1.614923
4.799805	1.615173
4.800293	1.614975
4.800781	1.615101
4.801270	1.614854
4.801758	1.615006
4.802246	1.614804
4.802734	1.614546
4.803223	1.615189
4.803711	1.615067
4.804199	1.615173
4.804687	1.615003
4.805176	1.614950
4.805664	1.614794
4.806152	1.615195
4.806641	1.615046
4.807129	1.615046
4.807617	1.615021
4.808105	1.614813
4.808594	1.615184
4.809082	1.615090
4.809570	1.615405
4.810059	1.615000
4.810547	1.615110
4.811035	1.615104
4.811523	1.614951
4.812012	1.615281
4.812500	1.614957
4.812988	1.614887
4.813477	1.614900
4.813965	1.615124
4.814453	1.615093
4.814941	1.615176
4.815430	1.615153
4.815918	1.615025
4.816406	1.615098
4.816895	1.614770
4.817383	1.615019
4.817871	1.614762
4.818359	1.614757
4.818848	1.614787
4.819336	1.614878
4.819824	1.614779
4.820312	1.614751
4.820801	1.614931
4.821289	1.614848
4.821777	1.614990
4.822266	1.614607
4.822754	1.614771
4.823242	1.614658
4.823730	1.614915
4.824219	1.614673
4.824707	1.614815
4.825195	1.614660
4.825684	1.614851
4.826172	1.614823
4.826660	1.614899
4.827148	1.614663
4.827637	1.614621
4.828125	1.614962
4.828613	1.614949
4.829102	1.614915
4.829590	1.614962
4.830078	1.614799
4.830566	1.614804
4.831055	1.615030
4.831543	1.614751
4.832031	1.614898
4.832520	1.614769
4.833008	1.614895
4.833496	1.614780
4.833984	1.614751
4.834473	1.614835
4.834961	1.614816
4.835449	1.614708
4.835937	1.614561
4.836426	1.614576
4.836914	1.614634
4.837402	1.614391
4.837891	1.614842
4.838379	1.614680
4.838867	1.614593
4.839355	1.614643
4.839844	1.614594
4.840332	1.614648
4.840820	1.614624
4.841309	1.614601
4.841797	1.614350
4.842285	1.614666
4.842773	1.614414
4.843262	1.614616
4.843750	1.614665
4.844238	1.614699
4.844727	1.614766
4.845215	1.614608
4.845703	1.614400
4.846191	1.614571
4.846680	1.614755
4.847168	1.614611
4.847656	1.614643
4.848145	1.614453
4.848633	1.614578
4.849121	1.614629
4.849609	1.614727
4.850098	1.614724
4.850586	1.614647
4.851074	1.614570
4.851562	1.614701
4.852051	1.614760
4.852539	1.614499
4.853027	1.614414
4.853516	1.614494
4.854004	1.614487
4.854492	1.614621
4.854980	1.614305
4.855469	1.614741
4.855957	1.614535
4.856445	1.614785
4.856934	1.614420
4.857422	1.614506
4.857910	1.614472
4.858398	1.614823
4.858887	1.614747
4.859375	1.614491
4.859863	1.614755
4.860352	1.614649
4.860840	1.614687
4.861328	1.614895
4.861816	1.614718
4.862305	1.614652
4.862793	1.614646
4.863281	1.614543
4.863770	1.614957
4.864258	1.614744
4.864746	1.614892
4.865234	1.614671
4.865723	1.614770
4.866211	1.614958
4.866699	1.614787
4.867187	1.615018
4.867676	1.614864
4.868164	1.614514
4.868652	1.614827
4.869141	1.614779
4.869629	1.614852
4.870117	1.614735
4.870605	1.614958
4.871094	1.614788
4.871582	1.614804
4.872070	1.614954
4.872559	1.614747
4.873047	1.614936
4.873535	1.614604
4.874023	1.614610
4.874512	1.614753
4.875000	1.614820
4.875488	1.614946
4.875977	1.614994
4.876465	1.614921
4.876953	1.614859
4.877441	1.614979
4.877930	1.615047
4.878418	1.615160
4.878906	1.615102
4.879395	1.615024
4.879883	1.615183
4.880371	1.615065
4.880859	1.614901
4.881348	1.615087
4.881836	1.615114
4.882324	1.615146

