LabVIEW Measurement	
Writer_Version	2
Reader_Version	2
Separator	Tab
Decimal_Separator	.
Multi_Headings	Yes
X_Columns	One
Time_Pref	Absolute
Operator	W-Tunnel
Date	2024/05/15
Time	15:43:47.0002361812495430154
***End_of_Header***	
	
Channels	1	
Samples	10000	
Date	2024/05/15	
Time	15:51:02.0185663812495335241	
Y_Unit_Label	Volts	
X_Dimension	Time	
X0	0.0000000000000000E+0	
Delta_X	0.000488	
***End_of_Header***		
X_Value	Voltage	Comment
0.000000	1.840935
0.000488	1.840661
0.000977	1.840750
0.001465	1.840658
0.001953	1.840639
0.002441	1.840729
0.002930	1.840846
0.003418	1.840536
0.003906	1.840779
0.004395	1.840702
0.004883	1.840807
0.005371	1.840780
0.005859	1.840656
0.006348	1.840907
0.006836	1.840927
0.007324	1.840970
0.007812	1.841083
0.008301	1.841004
0.008789	1.841034
0.009277	1.840945
0.009766	1.841062
0.010254	1.840990
0.010742	1.841132
0.011230	1.840947
0.011719	1.840948
0.012207	1.841192
0.012695	1.840943
0.013184	1.840827
0.013672	1.841004
0.014160	1.841145
0.014648	1.841028
0.015137	1.840909
0.015625	1.840852
0.016113	1.840777
0.016602	1.840709
0.017090	1.841062
0.017578	1.840875
0.018066	1.841082
0.018555	1.840896
0.019043	1.841106
0.019531	1.841173
0.020020	1.841061
0.020508	1.841117
0.020996	1.840898
0.021484	1.841140
0.021973	1.840996
0.022461	1.840981
0.022949	1.841109
0.023437	1.840997
0.023926	1.840816
0.024414	1.840817
0.024902	1.840916
0.025391	1.840891
0.025879	1.840824
0.026367	1.840916
0.026855	1.840867
0.027344	1.840943
0.027832	1.840954
0.028320	1.840868
0.028809	1.840948
0.029297	1.840886
0.029785	1.840768
0.030273	1.840942
0.030762	1.840621
0.031250	1.840557
0.031738	1.840681
0.032227	1.840910
0.032715	1.840953
0.033203	1.840832
0.033691	1.840693
0.034180	1.840893
0.034668	1.840491
0.035156	1.840815
0.035645	1.840780
0.036133	1.840785
0.036621	1.840730
0.037109	1.840625
0.037598	1.840766
0.038086	1.840845
0.038574	1.840617
0.039062	1.840658
0.039551	1.840530
0.040039	1.840713
0.040527	1.840573
0.041016	1.840617
0.041504	1.840732
0.041992	1.840263
0.042480	1.840576
0.042969	1.840505
0.043457	1.840606
0.043945	1.840256
0.044434	1.840457
0.044922	1.840583
0.045410	1.840430
0.045898	1.840728
0.046387	1.840605
0.046875	1.840588
0.047363	1.840645
0.047852	1.840690
0.048340	1.840424
0.048828	1.840671
0.049316	1.840647
0.049805	1.840751
0.050293	1.840704
0.050781	1.840583
0.051270	1.840813
0.051758	1.840463
0.052246	1.840362
0.052734	1.840852
0.053223	1.840592
0.053711	1.840857
0.054199	1.840693
0.054687	1.841093
0.055176	1.841112
0.055664	1.840700
0.056152	1.840876
0.056641	1.840946
0.057129	1.841082
0.057617	1.841046
0.058105	1.841084
0.058594	1.841142
0.059082	1.840924
0.059570	1.840924
0.060059	1.840852
0.060547	1.840826
0.061035	1.841145
0.061523	1.841115
0.062012	1.840957
0.062500	1.841025
0.062988	1.841114
0.063477	1.840890
0.063965	1.840953
0.064453	1.841043
0.064941	1.841424
0.065430	1.841243
0.065918	1.841133
0.066406	1.840991
0.066895	1.840906
0.067383	1.840985
0.067871	1.840930
0.068359	1.841028
0.068848	1.840981
0.069336	1.841261
0.069824	1.840966
0.070312	1.840947
0.070801	1.840665
0.071289	1.840938
0.071777	1.841021
0.072266	1.841034
0.072754	1.841007
0.073242	1.840894
0.073730	1.841067
0.074219	1.840899
0.074707	1.840874
0.075195	1.840847
0.075684	1.840891
0.076172	1.840958
0.076660	1.840811
0.077148	1.840784
0.077637	1.841105
0.078125	1.840685
0.078613	1.840930
0.079102	1.840677
0.079590	1.840692
0.080078	1.840715
0.080566	1.840442
0.081055	1.840582
0.081543	1.840657
0.082031	1.840469
0.082520	1.840602
0.083008	1.840530
0.083496	1.840514
0.083984	1.840863
0.084473	1.840768
0.084961	1.840783
0.085449	1.840633
0.085937	1.840506
0.086426	1.840751
0.086914	1.840347
0.087402	1.840560
0.087891	1.840603
0.088379	1.840833
0.088867	1.840649
0.089355	1.840855
0.089844	1.840696
0.090332	1.840788
0.090820	1.840677
0.091309	1.840822
0.091797	1.840738
0.092285	1.840504
0.092773	1.840785
0.093262	1.840862
0.093750	1.840649
0.094238	1.840704
0.094727	1.840700
0.095215	1.840749
0.095703	1.840992
0.096191	1.840862
0.096680	1.840705
0.097168	1.840832
0.097656	1.841108
0.098145	1.841035
0.098633	1.840852
0.099121	1.840983
0.099609	1.840972
0.100098	1.840995
0.100586	1.840885
0.101074	1.841048
0.101562	1.840443
0.102051	1.841017
0.102539	1.840855
0.103027	1.840805
0.103516	1.840665
0.104004	1.840756
0.104492	1.840705
0.104980	1.840680
0.105469	1.840649
0.105957	1.840766
0.106445	1.840560
0.106934	1.840486
0.107422	1.840844
0.107910	1.840429
0.108398	1.840655
0.108887	1.840686
0.109375	1.840400
0.109863	1.840426
0.110352	1.840293
0.110840	1.840450
0.111328	1.840353
0.111816	1.840118
0.112305	1.840634
0.112793	1.840428
0.113281	1.840419
0.113770	1.840433
0.114258	1.840319
0.114746	1.840416
0.115234	1.840213
0.115723	1.840134
0.116211	1.840199
0.116699	1.840301
0.117187	1.840113
0.117676	1.840473
0.118164	1.840272
0.118652	1.840344
0.119141	1.840503
0.119629	1.840112
0.120117	1.840218
0.120605	1.840259
0.121094	1.840197
0.121582	1.840233
0.122070	1.840302
0.122559	1.840176
0.123047	1.840263
0.123535	1.840140
0.124023	1.840311
0.124512	1.840412
0.125000	1.840102
0.125488	1.840154
0.125977	1.840237
0.126465	1.840359
0.126953	1.840389
0.127441	1.840433
0.127930	1.840454
0.128418	1.840489
0.128906	1.840967
0.129395	1.840701
0.129883	1.840650
0.130371	1.840473
0.130859	1.840488
0.131348	1.840739
0.131836	1.840757
0.132324	1.840643
0.132812	1.840716
0.133301	1.840577
0.133789	1.840726
0.134277	1.840339
0.134766	1.840633
0.135254	1.840470
0.135742	1.840768
0.136230	1.840603
0.136719	1.840760
0.137207	1.840706
0.137695	1.840746
0.138184	1.840605
0.138672	1.840854
0.139160	1.840602
0.139648	1.840899
0.140137	1.840583
0.140625	1.840783
0.141113	1.840832
0.141602	1.840614
0.142090	1.840762
0.142578	1.840708
0.143066	1.840762
0.143555	1.841053
0.144043	1.840819
0.144531	1.841211
0.145020	1.840824
0.145508	1.840842
0.145996	1.841061
0.146484	1.840961
0.146973	1.841036
0.147461	1.841120
0.147949	1.841337
0.148437	1.841274
0.148926	1.840935
0.149414	1.841013
0.149902	1.840906
0.150391	1.840896
0.150879	1.841032
0.151367	1.841106
0.151855	1.841070
0.152344	1.841086
0.152832	1.841037
0.153320	1.841142
0.153809	1.840957
0.154297	1.841300
0.154785	1.841284
0.155273	1.841197
0.155762	1.841298
0.156250	1.841112
0.156738	1.841347
0.157227	1.841424
0.157715	1.841254
0.158203	1.841423
0.158691	1.841358
0.159180	1.841399
0.159668	1.841092
0.160156	1.841254
0.160645	1.841168
0.161133	1.841153
0.161621	1.840995
0.162109	1.841283
0.162598	1.840888
0.163086	1.840984
0.163574	1.841119
0.164062	1.841037
0.164551	1.840954
0.165039	1.840886
0.165527	1.840970
0.166016	1.841101
0.166504	1.840948
0.166992	1.841356
0.167480	1.841223
0.167969	1.841108
0.168457	1.841047
0.168945	1.840893
0.169434	1.841206
0.169922	1.841041
0.170410	1.840867
0.170898	1.840860
0.171387	1.841133
0.171875	1.841069
0.172363	1.840940
0.172852	1.841064
0.173340	1.840812
0.173828	1.841105
0.174316	1.840818
0.174805	1.840855
0.175293	1.840692
0.175781	1.840917
0.176270	1.840496
0.176758	1.840735
0.177246	1.840925
0.177734	1.840752
0.178223	1.840497
0.178711	1.840771
0.179199	1.840968
0.179687	1.840638
0.180176	1.840784
0.180664	1.840365
0.181152	1.840839
0.181641	1.840774
0.182129	1.840627
0.182617	1.840929
0.183105	1.840627
0.183594	1.840622
0.184082	1.840907
0.184570	1.840832
0.185059	1.840528
0.185547	1.840663
0.186035	1.840660
0.186523	1.840704
0.187012	1.840615
0.187500	1.840661
0.187988	1.840581
0.188477	1.840807
0.188965	1.840662
0.189453	1.840715
0.189941	1.840585
0.190430	1.840561
0.190918	1.840572
0.191406	1.840635
0.191895	1.840618
0.192383	1.840748
0.192871	1.840822
0.193359	1.840599
0.193848	1.840708
0.194336	1.840348
0.194824	1.840466
0.195312	1.840419
0.195801	1.840311
0.196289	1.840696
0.196777	1.840493
0.197266	1.840518
0.197754	1.840478
0.198242	1.840575
0.198730	1.840530
0.199219	1.840200
0.199707	1.840588
0.200195	1.840757
0.200684	1.840600
0.201172	1.840694
0.201660	1.840651
0.202148	1.840602
0.202637	1.840578
0.203125	1.840590
0.203613	1.840738
0.204102	1.840643
0.204590	1.840663
0.205078	1.840607
0.205566	1.840584
0.206055	1.840585
0.206543	1.840535
0.207031	1.840502
0.207520	1.840649
0.208008	1.840239
0.208496	1.840069
0.208984	1.840264
0.209473	1.840013
0.209961	1.840362
0.210449	1.839986
0.210937	1.840171
0.211426	1.840151
0.211914	1.839609
0.212402	1.840174
0.212891	1.840037
0.213379	1.840219
0.213867	1.840132
0.214355	1.840196
0.214844	1.840535
0.215332	1.840039
0.215820	1.840115
0.216309	1.840303
0.216797	1.840174
0.217285	1.840237
0.217773	1.840159
0.218262	1.840490
0.218750	1.840309
0.219238	1.840232
0.219727	1.839991
0.220215	1.839672
0.220703	1.839706
0.221191	1.839747
0.221680	1.839892
0.222168	1.840207
0.222656	1.839541
0.223145	1.839754
0.223633	1.839861
0.224121	1.839915
0.224609	1.840019
0.225098	1.840036
0.225586	1.840016
0.226074	1.840128
0.226562	1.839996
0.227051	1.840146
0.227539	1.839894
0.228027	1.840193
0.228516	1.840151
0.229004	1.840280
0.229492	1.840347
0.229980	1.840009
0.230469	1.840083
0.230957	1.840048
0.231445	1.840107
0.231934	1.840088
0.232422	1.840056
0.232910	1.840301
0.233398	1.840215
0.233887	1.840373
0.234375	1.840071
0.234863	1.840137
0.235352	1.840193
0.235840	1.840058
0.236328	1.840287
0.236816	1.840282
0.237305	1.840450
0.237793	1.840282
0.238281	1.840655
0.238770	1.840516
0.239258	1.840672
0.239746	1.840533
0.240234	1.840463
0.240723	1.840366
0.241211	1.840478
0.241699	1.840411
0.242187	1.840560
0.242676	1.840363
0.243164	1.840614
0.243652	1.840193
0.244141	1.840487
0.244629	1.840460
0.245117	1.840365
0.245605	1.840283
0.246094	1.840568
0.246582	1.840574
0.247070	1.840552
0.247559	1.840753
0.248047	1.840743
0.248535	1.840760
0.249023	1.840560
0.249512	1.840790
0.250000	1.840729
0.250488	1.840655
0.250977	1.840624
0.251465	1.840657
0.251953	1.840650
0.252441	1.840810
0.252930	1.840458
0.253418	1.840683
0.253906	1.840675
0.254395	1.840636
0.254883	1.840389
0.255371	1.840741
0.255859	1.840558
0.256348	1.840822
0.256836	1.840877
0.257324	1.840801
0.257812	1.840809
0.258301	1.840808
0.258789	1.840809
0.259277	1.840866
0.259766	1.840935
0.260254	1.840956
0.260742	1.840899
0.261230	1.840915
0.261719	1.841034
0.262207	1.841030
0.262695	1.841289
0.263184	1.841281
0.263672	1.841184
0.264160	1.841394
0.264648	1.841106
0.265137	1.841100
0.265625	1.841234
0.266113	1.841142
0.266602	1.841140
0.267090	1.841170
0.267578	1.841354
0.268066	1.841172
0.268555	1.840980
0.269043	1.841197
0.269531	1.840949
0.270020	1.841068
0.270508	1.840967
0.270996	1.841277
0.271484	1.841482
0.271973	1.841433
0.272461	1.841239
0.272949	1.841371
0.273437	1.841415
0.273926	1.841504
0.274414	1.841353
0.274902	1.841443
0.275391	1.841510
0.275879	1.841408
0.276367	1.841348
0.276855	1.841432
0.277344	1.841365
0.277832	1.841474
0.278320	1.841398
0.278809	1.841358
0.279297	1.841454
0.279785	1.841271
0.280273	1.841067
0.280762	1.841198
0.281250	1.841286
0.281738	1.841259
0.282227	1.841170
0.282715	1.841306
0.283203	1.841109
0.283691	1.841371
0.284180	1.841189
0.284668	1.841180
0.285156	1.841016
0.285645	1.841151
0.286133	1.841101
0.286621	1.841246
0.287109	1.841165
0.287598	1.841236
0.288086	1.841193
0.288574	1.841236
0.289062	1.841222
0.289551	1.841226
0.290039	1.841084
0.290527	1.841001
0.291016	1.841067
0.291504	1.841117
0.291992	1.841076
0.292480	1.841016
0.292969	1.841208
0.293457	1.841147
0.293945	1.841125
0.294434	1.841076
0.294922	1.841162
0.295410	1.841092
0.295898	1.841062
0.296387	1.841027
0.296875	1.840947
0.297363	1.841088
0.297852	1.840965
0.298340	1.840922
0.298828	1.840686
0.299316	1.840769
0.299805	1.840709
0.300293	1.840837
0.300781	1.840705
0.301270	1.840875
0.301758	1.840752
0.302246	1.840607
0.302734	1.840762
0.303223	1.840701
0.303711	1.840870
0.304199	1.840555
0.304687	1.840672
0.305176	1.840876
0.305664	1.840639
0.306152	1.840724
0.306641	1.840699
0.307129	1.840688
0.307617	1.840550
0.308105	1.840464
0.308594	1.840546
0.309082	1.840393
0.309570	1.840328
0.310059	1.840402
0.310547	1.839985
0.311035	1.840217
0.311523	1.840279
0.312012	1.840348
0.312500	1.840207
0.312988	1.840193
0.313477	1.840117
0.313965	1.840312
0.314453	1.840203
0.314941	1.840225
0.315430	1.840127
0.315918	1.840374
0.316406	1.840306
0.316895	1.840194
0.317383	1.840377
0.317871	1.840184
0.318359	1.840103
0.318848	1.840347
0.319336	1.840290
0.319824	1.840355
0.320312	1.839995
0.320801	1.840030
0.321289	1.840275
0.321777	1.840317
0.322266	1.840555
0.322754	1.840397
0.323242	1.840345
0.323730	1.840373
0.324219	1.840374
0.324707	1.840451
0.325195	1.840312
0.325684	1.840303
0.326172	1.840572
0.326660	1.840404
0.327148	1.840549
0.327637	1.840395
0.328125	1.840504
0.328613	1.840403
0.329102	1.840507
0.329590	1.840515
0.330078	1.840508
0.330566	1.840541
0.331055	1.840455
0.331543	1.840607
0.332031	1.840634
0.332520	1.840722
0.333008	1.840684
0.333496	1.840700
0.333984	1.840741
0.334473	1.840588
0.334961	1.840733
0.335449	1.840600
0.335937	1.840716
0.336426	1.840661
0.336914	1.840771
0.337402	1.840574
0.337891	1.840930
0.338379	1.840931
0.338867	1.841034
0.339355	1.840904
0.339844	1.841007
0.340332	1.841010
0.340820	1.840995
0.341309	1.841010
0.341797	1.840619
0.342285	1.841039
0.342773	1.841115
0.343262	1.841056
0.343750	1.841085
0.344238	1.841095
0.344727	1.840918
0.345215	1.841019
0.345703	1.840968
0.346191	1.840927
0.346680	1.840909
0.347168	1.840795
0.347656	1.840909
0.348145	1.840705
0.348633	1.840926
0.349121	1.840841
0.349609	1.840908
0.350098	1.840882
0.350586	1.840989
0.351074	1.840680
0.351562	1.840770
0.352051	1.841012
0.352539	1.840844
0.353027	1.840813
0.353516	1.840899
0.354004	1.840856
0.354492	1.840538
0.354980	1.840990
0.355469	1.840620
0.355957	1.840649
0.356445	1.840582
0.356934	1.840942
0.357422	1.840799
0.357910	1.841131
0.358398	1.840897
0.358887	1.841118
0.359375	1.841031
0.359863	1.841200
0.360352	1.840957
0.360840	1.840934
0.361328	1.841242
0.361816	1.841017
0.362305	1.840995
0.362793	1.841092
0.363281	1.841043
0.363770	1.841020
0.364258	1.841184
0.364746	1.841039
0.365234	1.841104
0.365723	1.841051
0.366211	1.841011
0.366699	1.840974
0.367187	1.841214
0.367676	1.841044
0.368164	1.841219
0.368652	1.841073
0.369141	1.841194
0.369629	1.841181
0.370117	1.841298
0.370605	1.841148
0.371094	1.840960
0.371582	1.841265
0.372070	1.841233
0.372559	1.841229
0.373047	1.841104
0.373535	1.841170
0.374023	1.841073
0.374512	1.841051
0.375000	1.841114
0.375488	1.841057
0.375977	1.841054
0.376465	1.841040
0.376953	1.841167
0.377441	1.840889
0.377930	1.840957
0.378418	1.840885
0.378906	1.840665
0.379395	1.840868
0.379883	1.840794
0.380371	1.840578
0.380859	1.840582
0.381348	1.840679
0.381836	1.840854
0.382324	1.840711
0.382812	1.840675
0.383301	1.840766
0.383789	1.840705
0.384277	1.840704
0.384766	1.840366
0.385254	1.840597
0.385742	1.840711
0.386230	1.840632
0.386719	1.840757
0.387207	1.840441
0.387695	1.840750
0.388184	1.840666
0.388672	1.840480
0.389160	1.840721
0.389648	1.840641
0.390137	1.840382
0.390625	1.840268
0.391113	1.840351
0.391602	1.840511
0.392090	1.840455
0.392578	1.840282
0.393066	1.840467
0.393555	1.840222
0.394043	1.840159
0.394531	1.840396
0.395020	1.840494
0.395508	1.840565
0.395996	1.840505
0.396484	1.840597
0.396973	1.840674
0.397461	1.840687
0.397949	1.840495
0.398437	1.840570
0.398926	1.840430
0.399414	1.840613
0.399902	1.840495
0.400391	1.840543
0.400879	1.840277
0.401367	1.840324
0.401855	1.840459
0.402344	1.840335
0.402832	1.840350
0.403320	1.840275
0.403809	1.840307
0.404297	1.840311
0.404785	1.840444
0.405273	1.840486
0.405762	1.840329
0.406250	1.840585
0.406738	1.840522
0.407227	1.840696
0.407715	1.840674
0.408203	1.840392
0.408691	1.840500
0.409180	1.840844
0.409668	1.840685
0.410156	1.840648
0.410645	1.840595
0.411133	1.840574
0.411621	1.840566
0.412109	1.840890
0.412598	1.840691
0.413086	1.840556
0.413574	1.840608
0.414062	1.840616
0.414551	1.840791
0.415039	1.840673
0.415527	1.840571
0.416016	1.840663
0.416504	1.840838
0.416992	1.840668
0.417480	1.840854
0.417969	1.840636
0.418457	1.841158
0.418945	1.840862
0.419434	1.840629
0.419922	1.841016
0.420410	1.840707
0.420898	1.840652
0.421387	1.840708
0.421875	1.840798
0.422363	1.841188
0.422852	1.840630
0.423340	1.840700
0.423828	1.840609
0.424316	1.840493
0.424805	1.840706
0.425293	1.840567
0.425781	1.840724
0.426270	1.840680
0.426758	1.840580
0.427246	1.840764
0.427734	1.840748
0.428223	1.840635
0.428711	1.840492
0.429199	1.840620
0.429687	1.840846
0.430176	1.840542
0.430664	1.840686
0.431152	1.840704
0.431641	1.840519
0.432129	1.840542
0.432617	1.840509
0.433105	1.840655
0.433594	1.840571
0.434082	1.840336
0.434570	1.840515
0.435059	1.840608
0.435547	1.840409
0.436035	1.840505
0.436523	1.840321
0.437012	1.840186
0.437500	1.840354
0.437988	1.840501
0.438477	1.840220
0.438965	1.840272
0.439453	1.840218
0.439941	1.840419
0.440430	1.840401
0.440918	1.840527
0.441406	1.840644
0.441895	1.840288
0.442383	1.840546
0.442871	1.840353
0.443359	1.840623
0.443848	1.840290
0.444336	1.840442
0.444824	1.840322
0.445312	1.840423
0.445801	1.840311
0.446289	1.840381
0.446777	1.840499
0.447266	1.840424
0.447754	1.840656
0.448242	1.840477
0.448730	1.840494
0.449219	1.840406
0.449707	1.840466
0.450195	1.840298
0.450684	1.840088
0.451172	1.840488
0.451660	1.840371
0.452148	1.840310
0.452637	1.840544
0.453125	1.840629
0.453613	1.840446
0.454102	1.840298
0.454590	1.840457
0.455078	1.840618
0.455566	1.840560
0.456055	1.840550
0.456543	1.840772
0.457031	1.840690
0.457520	1.840819
0.458008	1.840749
0.458496	1.840671
0.458984	1.840626
0.459473	1.840445
0.459961	1.840818
0.460449	1.840600
0.460937	1.840531
0.461426	1.840356
0.461914	1.840356
0.462402	1.840844
0.462891	1.840315
0.463379	1.840367
0.463867	1.840351
0.464355	1.840453
0.464844	1.840530
0.465332	1.840544
0.465820	1.840616
0.466309	1.840648
0.466797	1.840628
0.467285	1.840729
0.467773	1.840624
0.468262	1.840771
0.468750	1.840397
0.469238	1.840779
0.469727	1.840657
0.470215	1.840697
0.470703	1.840430
0.471191	1.840544
0.471680	1.840359
0.472168	1.840707
0.472656	1.840799
0.473145	1.840487
0.473633	1.840383
0.474121	1.840572
0.474609	1.840635
0.475098	1.840503
0.475586	1.840542
0.476074	1.840527
0.476562	1.840602
0.477051	1.840660
0.477539	1.840503
0.478027	1.840624
0.478516	1.840476
0.479004	1.840553
0.479492	1.840484
0.479980	1.840429
0.480469	1.840257
0.480957	1.840157
0.481445	1.840571
0.481934	1.840293
0.482422	1.840380
0.482910	1.840333
0.483398	1.840253
0.483887	1.840509
0.484375	1.840062
0.484863	1.840426
0.485352	1.840414
0.485840	1.840262
0.486328	1.840553
0.486816	1.840535
0.487305	1.840834
0.487793	1.840441
0.488281	1.840434
0.488770	1.840758
0.489258	1.840428
0.489746	1.840740
0.490234	1.840394
0.490723	1.840390
0.491211	1.840669
0.491699	1.840671
0.492187	1.840657
0.492676	1.840598
0.493164	1.840491
0.493652	1.840404
0.494141	1.840478
0.494629	1.840342
0.495117	1.840596
0.495605	1.840378
0.496094	1.840417
0.496582	1.840458
0.497070	1.840585
0.497559	1.840702
0.498047	1.840409
0.498535	1.840663
0.499023	1.840760
0.499512	1.840753
0.500000	1.840800
0.500488	1.840783
0.500977	1.840678
0.501465	1.840951
0.501953	1.840754
0.502441	1.841047
0.502930	1.840913
0.503418	1.840594
0.503906	1.841022
0.504395	1.840924
0.504883	1.840900
0.505371	1.840732
0.505859	1.840796
0.506348	1.841029
0.506836	1.840848
0.507324	1.840788
0.507812	1.840657
0.508301	1.840702
0.508789	1.840694
0.509277	1.840636
0.509766	1.840698
0.510254	1.840729
0.510742	1.840610
0.511230	1.840757
0.511719	1.840771
0.512207	1.840779
0.512695	1.840859
0.513184	1.840823
0.513672	1.840736
0.514160	1.840909
0.514648	1.840809
0.515137	1.840750
0.515625	1.840683
0.516113	1.840780
0.516602	1.840658
0.517090	1.840783
0.517578	1.840709
0.518066	1.840646
0.518555	1.840428
0.519043	1.840310
0.519531	1.840483
0.520020	1.840234
0.520508	1.840297
0.520996	1.840184
0.521484	1.840405
0.521973	1.840675
0.522461	1.839954
0.522949	1.840231
0.523437	1.840103
0.523926	1.840214
0.524414	1.840273
0.524902	1.840262
0.525391	1.840498
0.525879	1.840326
0.526367	1.840245
0.526855	1.840169
0.527344	1.840308
0.527832	1.840169
0.528320	1.840258
0.528809	1.840018
0.529297	1.840212
0.529785	1.840121
0.530273	1.840124
0.530762	1.840170
0.531250	1.840166
0.531738	1.840256
0.532227	1.840236
0.532715	1.840274
0.533203	1.840272
0.533691	1.840386
0.534180	1.840317
0.534668	1.840243
0.535156	1.840402
0.535645	1.840396
0.536133	1.840611
0.536621	1.840462
0.537109	1.840592
0.537598	1.840680
0.538086	1.840639
0.538574	1.840755
0.539062	1.840502
0.539551	1.840589
0.540039	1.840694
0.540527	1.840575
0.541016	1.840572
0.541504	1.840591
0.541992	1.840675
0.542480	1.840851
0.542969	1.840933
0.543457	1.840776
0.543945	1.840976
0.544434	1.840705
0.544922	1.840892
0.545410	1.840995
0.545898	1.840987
0.546387	1.841025
0.546875	1.841150
0.547363	1.841043
0.547852	1.841178
0.548340	1.841145
0.548828	1.841061
0.549316	1.840860
0.549805	1.841106
0.550293	1.841128
0.550781	1.840956
0.551270	1.840913
0.551758	1.840948
0.552246	1.840824
0.552734	1.840946
0.553223	1.840948
0.553711	1.840827
0.554199	1.840724
0.554687	1.840518
0.555176	1.840856
0.555664	1.840788
0.556152	1.840915
0.556641	1.840769
0.557129	1.841057
0.557617	1.841037
0.558105	1.840907
0.558594	1.840913
0.559082	1.841041
0.559570	1.841111
0.560059	1.841263
0.560547	1.840900
0.561035	1.840876
0.561523	1.841048
0.562012	1.841024
0.562500	1.840922
0.562988	1.840798
0.563477	1.841014
0.563965	1.840895
0.564453	1.841065
0.564941	1.840946
0.565430	1.841038
0.565918	1.840931
0.566406	1.841057
0.566895	1.841054
0.567383	1.840972
0.567871	1.840899
0.568359	1.840861
0.568848	1.840959
0.569336	1.840899
0.569824	1.841059
0.570312	1.840812
0.570801	1.840942
0.571289	1.841199
0.571777	1.840841
0.572266	1.840749
0.572754	1.841137
0.573242	1.840874
0.573730	1.841129
0.574219	1.841104
0.574707	1.841018
0.575195	1.840887
0.575684	1.840984
0.576172	1.840965
0.576660	1.841070
0.577148	1.840962
0.577637	1.841139
0.578125	1.840942
0.578613	1.841019
0.579102	1.841361
0.579590	1.841039
0.580078	1.841073
0.580566	1.841014
0.581055	1.840978
0.581543	1.841158
0.582031	1.840987
0.582520	1.841175
0.583008	1.840884
0.583496	1.841018
0.583984	1.841018
0.584473	1.840804
0.584961	1.840845
0.585449	1.840564
0.585937	1.840846
0.586426	1.840680
0.586914	1.840686
0.587402	1.841023
0.587891	1.840956
0.588379	1.840876
0.588867	1.840732
0.589355	1.840632
0.589844	1.840881
0.590332	1.840701
0.590820	1.840938
0.591309	1.840842
0.591797	1.840783
0.592285	1.841042
0.592773	1.840880
0.593262	1.840916
0.593750	1.840546
0.594238	1.840516
0.594727	1.840652
0.595215	1.840484
0.595703	1.840416
0.596191	1.840703
0.596680	1.840649
0.597168	1.840590
0.597656	1.840538
0.598145	1.840594
0.598633	1.840552
0.599121	1.840403
0.599609	1.840398
0.600098	1.840426
0.600586	1.840583
0.601074	1.840412
0.601562	1.840369
0.602051	1.840520
0.602539	1.840480
0.603027	1.840358
0.603516	1.840456
0.604004	1.840340
0.604492	1.840575
0.604980	1.840624
0.605469	1.840340
0.605957	1.840394
0.606445	1.840713
0.606934	1.840647
0.607422	1.840459
0.607910	1.840500
0.608398	1.840481
0.608887	1.840486
0.609375	1.840609
0.609863	1.840741
0.610352	1.840549
0.610840	1.840427
0.611328	1.840546
0.611816	1.840514
0.612305	1.840548
0.612793	1.840380
0.613281	1.840301
0.613770	1.840664
0.614258	1.840425
0.614746	1.840487
0.615234	1.840691
0.615723	1.840412
0.616211	1.840308
0.616699	1.840386
0.617187	1.840473
0.617676	1.840568
0.618164	1.840211
0.618652	1.840316
0.619141	1.840616
0.619629	1.840381
0.620117	1.840193
0.620605	1.840152
0.621094	1.840170
0.621582	1.840233
0.622070	1.840289
0.622559	1.840276
0.623047	1.840170
0.623535	1.840231
0.624023	1.840418
0.624512	1.840273
0.625000	1.840063
0.625488	1.840297
0.625977	1.840378
0.626465	1.840522
0.626953	1.840239
0.627441	1.840612
0.627930	1.840553
0.628418	1.840970
0.628906	1.840868
0.629395	1.840652
0.629883	1.840489
0.630371	1.840666
0.630859	1.840768
0.631348	1.840569
0.631836	1.840598
0.632324	1.840587
0.632812	1.840777
0.633301	1.840567
0.633789	1.840807
0.634277	1.840769
0.634766	1.840911
0.635254	1.841020
0.635742	1.840760
0.636230	1.840912
0.636719	1.841012
0.637207	1.841015
0.637695	1.841080
0.638184	1.841045
0.638672	1.841416
0.639160	1.840940
0.639648	1.840769
0.640137	1.840935
0.640625	1.840722
0.641113	1.840998
0.641602	1.840743
0.642090	1.841114
0.642578	1.841026
0.643066	1.841007
0.643555	1.840972
0.644043	1.840974
0.644531	1.841157
0.645020	1.840975
0.645508	1.841106
0.645996	1.841191
0.646484	1.841118
0.646973	1.841223
0.647461	1.841105
0.647949	1.841145
0.648437	1.841083
0.648926	1.840988
0.649414	1.841280
0.649902	1.841118
0.650391	1.841132
0.650879	1.840971
0.651367	1.840912
0.651855	1.840954
0.652344	1.840864
0.652832	1.840916
0.653320	1.840826
0.653809	1.840841
0.654297	1.840698
0.654785	1.841034
0.655273	1.840852
0.655762	1.840882
0.656250	1.840941
0.656738	1.841064
0.657227	1.841103
0.657715	1.840995
0.658203	1.840906
0.658691	1.840862
0.659180	1.841012
0.659668	1.841144
0.660156	1.841117
0.660645	1.840812
0.661133	1.841260
0.661621	1.841009
0.662109	1.841122
0.662598	1.841032
0.663086	1.841067
0.663574	1.840965
0.664062	1.841186
0.664551	1.841051
0.665039	1.840848
0.665527	1.840932
0.666016	1.841198
0.666504	1.841040
0.666992	1.841046
0.667480	1.841090
0.667969	1.841115
0.668457	1.840938
0.668945	1.841128
0.669434	1.841060
0.669922	1.840819
0.670410	1.841184
0.670898	1.841158
0.671387	1.841173
0.671875	1.841120
0.672363	1.841314
0.672852	1.841105
0.673340	1.841460
0.673828	1.841161
0.674316	1.841306
0.674805	1.840940
0.675293	1.841108
0.675781	1.841103
0.676270	1.841018
0.676758	1.841003
0.677246	1.841207
0.677734	1.841269
0.678223	1.841241
0.678711	1.840954
0.679199	1.841480
0.679687	1.841139
0.680176	1.841323
0.680664	1.841548
0.681152	1.841515
0.681641	1.841375
0.682129	1.841344
0.682617	1.841325
0.683105	1.841614
0.683594	1.841455
0.684082	1.841439
0.684570	1.841425
0.685059	1.841536
0.685547	1.841489
0.686035	1.841570
0.686523	1.841564
0.687012	1.841361
0.687500	1.841452
0.687988	1.841195
0.688477	1.841491
0.688965	1.841413
0.689453	1.841306
0.689941	1.841230
0.690430	1.841483
0.690918	1.841360
0.691406	1.841178
0.691895	1.841228
0.692383	1.841467
0.692871	1.841277
0.693359	1.841212
0.693848	1.841121
0.694336	1.841278
0.694824	1.841277
0.695312	1.841256
0.695801	1.841147
0.696289	1.841179
0.696777	1.841200
0.697266	1.841318
0.697754	1.841170
0.698242	1.841276
0.698730	1.841646
0.699219	1.841207
0.699707	1.841166
0.700195	1.841225
0.700684	1.841137
0.701172	1.840947
0.701660	1.840974
0.702148	1.840926
0.702637	1.840976
0.703125	1.841036
0.703613	1.840999
0.704102	1.841017
0.704590	1.841164
0.705078	1.840997
0.705566	1.841125
0.706055	1.841094
0.706543	1.841151
0.707031	1.841358
0.707520	1.841248
0.708008	1.841522
0.708496	1.841156
0.708984	1.841072
0.709473	1.841050
0.709961	1.841301
0.710449	1.841108
0.710937	1.841144
0.711426	1.841130
0.711914	1.841078
0.712402	1.841197
0.712891	1.841082
0.713379	1.841131
0.713867	1.841304
0.714355	1.841267
0.714844	1.841097
0.715332	1.841306
0.715820	1.841144
0.716309	1.841106
0.716797	1.841072
0.717285	1.841364
0.717773	1.841139
0.718262	1.841101
0.718750	1.841021
0.719238	1.841004
0.719727	1.841100
0.720215	1.840981
0.720703	1.841031
0.721191	1.840878
0.721680	1.841176
0.722168	1.840994
0.722656	1.840898
0.723145	1.840935
0.723633	1.840866
0.724121	1.841101
0.724609	1.841102
0.725098	1.840934
0.725586	1.841153
0.726074	1.840977
0.726562	1.841110
0.727051	1.840972
0.727539	1.841169
0.728027	1.841122
0.728516	1.841042
0.729004	1.841006
0.729492	1.841147
0.729980	1.841048
0.730469	1.841260
0.730957	1.841131
0.731445	1.841145
0.731934	1.841252
0.732422	1.841088
0.732910	1.841155
0.733398	1.841028
0.733887	1.841173
0.734375	1.840846
0.734863	1.840933
0.735352	1.840804
0.735840	1.840784
0.736328	1.840666
0.736816	1.840818
0.737305	1.840724
0.737793	1.840867
0.738281	1.840733
0.738770	1.840918
0.739258	1.840609
0.739746	1.840899
0.740234	1.840813
0.740723	1.840852
0.741211	1.841081
0.741699	1.840748
0.742187	1.840747
0.742676	1.840633
0.743164	1.840786
0.743652	1.840529
0.744141	1.840564
0.744629	1.840445
0.745117	1.840592
0.745605	1.840376
0.746094	1.840373
0.746582	1.840437
0.747070	1.840318
0.747559	1.840248
0.748047	1.840147
0.748535	1.840151
0.749023	1.840198
0.749512	1.840048
0.750000	1.840399
0.750488	1.840237
0.750977	1.840217
0.751465	1.840326
0.751953	1.840325
0.752441	1.840295
0.752930	1.840394
0.753418	1.840311
0.753906	1.840471
0.754395	1.840443
0.754883	1.840477
0.755371	1.840338
0.755859	1.840278
0.756348	1.840455
0.756836	1.840297
0.757324	1.840538
0.757812	1.840539
0.758301	1.840063
0.758789	1.840486
0.759277	1.840420
0.759766	1.840505
0.760254	1.840555
0.760742	1.840397
0.761230	1.840355
0.761719	1.840352
0.762207	1.840392
0.762695	1.840529
0.763184	1.840398
0.763672	1.840503
0.764160	1.840658
0.764648	1.840583
0.765137	1.840466
0.765625	1.840487
0.766113	1.840557
0.766602	1.840696
0.767090	1.840575
0.767578	1.840818
0.768066	1.840405
0.768555	1.840446
0.769043	1.840768
0.769531	1.840757
0.770020	1.840824
0.770508	1.840619
0.770996	1.840910
0.771484	1.841091
0.771973	1.840596
0.772461	1.840829
0.772949	1.840753
0.773437	1.840881
0.773926	1.840877
0.774414	1.840849
0.774902	1.841050
0.775391	1.840865
0.775879	1.840921
0.776367	1.840772
0.776855	1.840831
0.777344	1.841161
0.777832	1.840980
0.778320	1.841079
0.778809	1.840894
0.779297	1.841111
0.779785	1.840815
0.780273	1.840567
0.780762	1.840733
0.781250	1.840621
0.781738	1.840790
0.782227	1.840822
0.782715	1.840809
0.783203	1.840732
0.783691	1.840926
0.784180	1.840708
0.784668	1.841004
0.785156	1.840939
0.785645	1.840981
0.786133	1.841020
0.786621	1.840758
0.787109	1.840991
0.787598	1.840934
0.788086	1.840874
0.788574	1.841012
0.789062	1.841059
0.789551	1.841068
0.790039	1.840920
0.790527	1.840924
0.791016	1.840767
0.791504	1.840807
0.791992	1.840700
0.792480	1.840819
0.792969	1.840811
0.793457	1.840817
0.793945	1.840565
0.794434	1.840614
0.794922	1.840480
0.795410	1.840613
0.795898	1.840570
0.796387	1.840865
0.796875	1.841158
0.797363	1.840897
0.797852	1.840849
0.798340	1.840913
0.798828	1.841084
0.799316	1.840946
0.799805	1.841055
0.800293	1.840871
0.800781	1.840944
0.801270	1.840787
0.801758	1.841070
0.802246	1.840853
0.802734	1.840897
0.803223	1.841022
0.803711	1.841103
0.804199	1.840942
0.804687	1.841046
0.805176	1.841057
0.805664	1.841076
0.806152	1.841132
0.806641	1.840962
0.807129	1.841069
0.807617	1.841159
0.808105	1.841136
0.808594	1.841032
0.809082	1.841158
0.809570	1.841062
0.810059	1.841314
0.810547	1.841140
0.811035	1.841365
0.811523	1.841240
0.812012	1.841240
0.812500	1.841377
0.812988	1.841346
0.813477	1.841476
0.813965	1.841389
0.814453	1.841444
0.814941	1.841338
0.815430	1.841272
0.815918	1.841297
0.816406	1.841457
0.816895	1.841391
0.817383	1.841286
0.817871	1.841500
0.818359	1.841563
0.818848	1.841665
0.819336	1.841589
0.819824	1.841533
0.820312	1.841782
0.820801	1.841433
0.821289	1.841516
0.821777	1.841505
0.822266	1.841456
0.822754	1.841314
0.823242	1.841286
0.823730	1.841324
0.824219	1.841333
0.824707	1.841161
0.825195	1.841176
0.825684	1.841167
0.826172	1.841054
0.826660	1.841316
0.827148	1.841190
0.827637	1.841129
0.828125	1.841150
0.828613	1.840989
0.829102	1.841172
0.829590	1.840706
0.830078	1.841025
0.830566	1.841165
0.831055	1.841115
0.831543	1.841226
0.832031	1.840994
0.832520	1.841192
0.833008	1.841134
0.833496	1.841129
0.833984	1.841067
0.834473	1.841123
0.834961	1.840881
0.835449	1.840954
0.835937	1.841012
0.836426	1.840866
0.836914	1.840777
0.837402	1.840807
0.837891	1.840896
0.838379	1.840753
0.838867	1.840716
0.839355	1.840699
0.839844	1.840804
0.840332	1.840929
0.840820	1.840755
0.841309	1.840934
0.841797	1.840934
0.842285	1.840787
0.842773	1.840785
0.843262	1.840967
0.843750	1.840940
0.844238	1.840863
0.844727	1.840938
0.845215	1.841033
0.845703	1.840837
0.846191	1.841089
0.846680	1.841072
0.847168	1.840762
0.847656	1.840927
0.848145	1.840901
0.848633	1.840856
0.849121	1.840879
0.849609	1.841097
0.850098	1.840960
0.850586	1.841090
0.851074	1.840782
0.851562	1.840882
0.852051	1.840656
0.852539	1.840910
0.853027	1.840923
0.853516	1.841014
0.854004	1.840698
0.854492	1.841111
0.854980	1.840943
0.855469	1.840921
0.855957	1.840846
0.856445	1.840775
0.856934	1.840840
0.857422	1.841165
0.857910	1.840876
0.858398	1.841022
0.858887	1.841453
0.859375	1.841046
0.859863	1.841136
0.860352	1.840790
0.860840	1.840874
0.861328	1.840823
0.861816	1.840980
0.862305	1.841039
0.862793	1.841012
0.863281	1.841017
0.863770	1.841040
0.864258	1.841043
0.864746	1.841072
0.865234	1.841133
0.865723	1.840868
0.866211	1.841240
0.866699	1.841073
0.867187	1.841029
0.867676	1.841200
0.868164	1.841003
0.868652	1.840974
0.869141	1.840870
0.869629	1.841062
0.870117	1.840824
0.870605	1.840887
0.871094	1.840841
0.871582	1.840608
0.872070	1.840661
0.872559	1.840829
0.873047	1.840755
0.873535	1.841011
0.874023	1.841046
0.874512	1.841065
0.875000	1.840943
0.875488	1.840998
0.875977	1.840863
0.876465	1.841074
0.876953	1.840926
0.877441	1.841255
0.877930	1.840982
0.878418	1.841140
0.878906	1.840978
0.879395	1.840865
0.879883	1.840873
0.880371	1.840918
0.880859	1.840827
0.881348	1.840826
0.881836	1.840901
0.882324	1.840826
0.882812	1.840729
0.883301	1.840563
0.883789	1.840662
0.884277	1.840531
0.884766	1.840743
0.885254	1.840649
0.885742	1.840664
0.886230	1.840602
0.886719	1.840603
0.887207	1.840572
0.887695	1.840885
0.888184	1.840660
0.888672	1.840795
0.889160	1.840845
0.889648	1.840677
0.890137	1.840739
0.890625	1.840369
0.891113	1.840607
0.891602	1.840351
0.892090	1.840386
0.892578	1.840822
0.893066	1.840469
0.893555	1.840539
0.894043	1.840444
0.894531	1.840425
0.895020	1.840646
0.895508	1.840330
0.895996	1.840705
0.896484	1.840588
0.896973	1.840659
0.897461	1.840585
0.897949	1.840571
0.898437	1.840490
0.898926	1.840760
0.899414	1.840623
0.899902	1.840422
0.900391	1.840536
0.900879	1.840484
0.901367	1.840567
0.901855	1.840560
0.902344	1.840626
0.902832	1.840530
0.903320	1.840696
0.903809	1.840580
0.904297	1.840987
0.904785	1.840744
0.905273	1.840874
0.905762	1.840830
0.906250	1.840622
0.906738	1.840862
0.907227	1.840882
0.907715	1.840934
0.908203	1.840993
0.908691	1.840805
0.909180	1.841201
0.909668	1.840726
0.910156	1.840842
0.910645	1.840731
0.911133	1.840881
0.911621	1.840862
0.912109	1.840849
0.912598	1.840733
0.913086	1.840866
0.913574	1.840672
0.914062	1.840870
0.914551	1.840871
0.915039	1.840852
0.915527	1.841018
0.916016	1.840951
0.916504	1.841040
0.916992	1.841064
0.917480	1.841231
0.917969	1.841116
0.918457	1.841108
0.918945	1.841216
0.919434	1.841072
0.919922	1.841164
0.920410	1.841070
0.920898	1.840903
0.921387	1.841056
0.921875	1.840995
0.922363	1.840898
0.922852	1.840813
0.923340	1.840827
0.923828	1.840849
0.924316	1.840845
0.924805	1.840760
0.925293	1.840863
0.925781	1.840820
0.926270	1.840433
0.926758	1.840645
0.927246	1.840697
0.927734	1.840627
0.928223	1.840469
0.928711	1.840700
0.929199	1.840805
0.929687	1.840544
0.930176	1.840552
0.930664	1.840426
0.931152	1.840387
0.931641	1.840384
0.932129	1.840553
0.932617	1.840670
0.933105	1.840495
0.933594	1.840781
0.934082	1.840633
0.934570	1.840535
0.935059	1.840647
0.935547	1.840498
0.936035	1.840686
0.936523	1.840590
0.937012	1.840590
0.937500	1.840803
0.937988	1.840646
0.938477	1.840589
0.938965	1.840509
0.939453	1.840493
0.939941	1.840484
0.940430	1.840509
0.940918	1.840376
0.941406	1.840452
0.941895	1.840369
0.942383	1.840757
0.942871	1.840584
0.943359	1.840672
0.943848	1.840503
0.944336	1.840845
0.944824	1.840734
0.945312	1.840730
0.945801	1.840945
0.946289	1.840799
0.946777	1.840713
0.947266	1.840777
0.947754	1.840727
0.948242	1.840858
0.948730	1.840786
0.949219	1.840684
0.949707	1.840655
0.950195	1.841140
0.950684	1.840826
0.951172	1.840933
0.951660	1.840794
0.952148	1.840745
0.952637	1.841083
0.953125	1.841199
0.953613	1.840947
0.954102	1.840960
0.954590	1.841136
0.955078	1.841124
0.955566	1.841120
0.956055	1.841072
0.956543	1.840974
0.957031	1.841116
0.957520	1.841270
0.958008	1.841035
0.958496	1.840891
0.958984	1.841154
0.959473	1.841261
0.959961	1.840992
0.960449	1.841051
0.960937	1.840696
0.961426	1.840897
0.961914	1.840815
0.962402	1.840726
0.962891	1.841094
0.963379	1.840831
0.963867	1.840896
0.964355	1.840861
0.964844	1.840846
0.965332	1.840718
0.965820	1.840780
0.966309	1.840734
0.966797	1.840804
0.967285	1.840546
0.967773	1.840694
0.968262	1.840760
0.968750	1.840567
0.969238	1.840799
0.969727	1.840723
0.970215	1.840832
0.970703	1.840693
0.971191	1.840347
0.971680	1.840676
0.972168	1.840470
0.972656	1.840569
0.973145	1.840683
0.973633	1.840491
0.974121	1.840562
0.974609	1.840417
0.975098	1.840459
0.975586	1.840423
0.976074	1.840379
0.976562	1.840825
0.977051	1.840598
0.977539	1.840721
0.978027	1.840603
0.978516	1.840662
0.979004	1.840752
0.979492	1.840272
0.979980	1.840761
0.980469	1.840788
0.980957	1.840622
0.981445	1.840528
0.981934	1.840561
0.982422	1.840448
0.982910	1.840745
0.983398	1.840901
0.983887	1.840342
0.984375	1.840478
0.984863	1.840787
0.985352	1.840893
0.985840	1.840694
0.986328	1.840808
0.986816	1.840608
0.987305	1.840998
0.987793	1.840945
0.988281	1.840894
0.988770	1.840745
0.989258	1.840954
0.989746	1.841154
0.990234	1.840954
0.990723	1.841076
0.991211	1.840998
0.991699	1.841103
0.992187	1.841151
0.992676	1.841230
0.993164	1.841098
0.993652	1.841291
0.994141	1.841123
0.994629	1.841300
0.995117	1.841137
0.995605	1.841238
0.996094	1.841225
0.996582	1.841292
0.997070	1.841223
0.997559	1.841187
0.998047	1.841228
0.998535	1.841148
0.999023	1.841145
0.999512	1.841024
1.000000	1.841025
1.000488	1.840799
1.000977	1.840765
1.001465	1.840805
1.001953	1.840988
1.002441	1.840873
1.002930	1.840959
1.003418	1.840742
1.003906	1.841026
1.004395	1.840922
1.004883	1.840924
1.005371	1.840809
1.005859	1.840851
1.006348	1.840930
1.006836	1.841084
1.007324	1.840895
1.007812	1.841154
1.008301	1.840876
1.008789	1.841010
1.009277	1.840751
1.009766	1.840931
1.010254	1.840675
1.010742	1.840599
1.011230	1.840670
1.011719	1.840857
1.012207	1.840729
1.012695	1.840599
1.013184	1.840734
1.013672	1.840665
1.014160	1.840863
1.014648	1.840816
1.015137	1.840755
1.015625	1.840665
1.016113	1.840897
1.016602	1.840626
1.017090	1.840824
1.017578	1.840749
1.018066	1.840809
1.018555	1.840495
1.019043	1.840652
1.019531	1.840574
1.020020	1.840484
1.020508	1.840543
1.020996	1.840387
1.021484	1.841017
1.021973	1.840804
1.022461	1.840502
1.022949	1.840651
1.023437	1.840905
1.023926	1.840871
1.024414	1.840665
1.024902	1.840859
1.025391	1.840749
1.025879	1.840912
1.026367	1.840881
1.026855	1.840642
1.027344	1.840702
1.027832	1.840884
1.028320	1.840838
1.028809	1.840732
1.029297	1.840704
1.029785	1.840714
1.030273	1.840639
1.030762	1.840899
1.031250	1.840628
1.031738	1.840472
1.032227	1.840641
1.032715	1.840618
1.033203	1.840575
1.033691	1.840591
1.034180	1.840333
1.034668	1.840395
1.035156	1.840405
1.035645	1.840813
1.036133	1.840328
1.036621	1.840334
1.037109	1.840559
1.037598	1.840769
1.038086	1.840608
1.038574	1.840687
1.039062	1.840847
1.039551	1.840634
1.040039	1.841037
1.040527	1.840692
1.041016	1.840632
1.041504	1.840583
1.041992	1.840647
1.042480	1.840499
1.042969	1.840625
1.043457	1.840472
1.043945	1.840712
1.044434	1.840451
1.044922	1.840662
1.045410	1.840491
1.045898	1.840531
1.046387	1.840351
1.046875	1.840732
1.047363	1.840343
1.047852	1.840645
1.048340	1.840234
1.048828	1.840455
1.049316	1.840711
1.049805	1.840483
1.050293	1.840587
1.050781	1.840478
1.051270	1.840495
1.051758	1.840586
1.052246	1.840600
1.052734	1.840549
1.053223	1.840493
1.053711	1.840362
1.054199	1.840536
1.054687	1.840233
1.055176	1.840293
1.055664	1.840019
1.056152	1.840273
1.056641	1.840095
1.057129	1.840468
1.057617	1.840254
1.058105	1.840318
1.058594	1.840392
1.059082	1.840318
1.059570	1.840245
1.060059	1.840317
1.060547	1.839959
1.061035	1.840125
1.061523	1.840151
1.062012	1.840177
1.062500	1.840084
1.062988	1.840153
1.063477	1.839928
1.063965	1.839854
1.064453	1.840018
1.064941	1.839634
1.065430	1.839934
1.065918	1.839857
1.066406	1.839934
1.066895	1.839677
1.067383	1.839943
1.067871	1.839885
1.068359	1.840142
1.068848	1.839772
1.069336	1.839797
1.069824	1.839661
1.070312	1.839852
1.070801	1.839776
1.071289	1.839680
1.071777	1.839517
1.072266	1.839778
1.072754	1.839466
1.073242	1.839754
1.073730	1.839786
1.074219	1.839653
1.074707	1.839555
1.075195	1.839733
1.075684	1.839600
1.076172	1.839610
1.076660	1.839722
1.077148	1.839551
1.077637	1.839668
1.078125	1.839721
1.078613	1.839597
1.079102	1.839595
1.079590	1.839650
1.080078	1.839725
1.080566	1.839769
1.081055	1.839743
1.081543	1.839922
1.082031	1.839642
1.082520	1.840007
1.083008	1.840007
1.083496	1.839876
1.083984	1.839894
1.084473	1.839988
1.084961	1.839891
1.085449	1.839993
1.085937	1.840019
1.086426	1.839908
1.086914	1.839889
1.087402	1.840158
1.087891	1.840013
1.088379	1.839904
1.088867	1.839994
1.089355	1.840035
1.089844	1.839963
1.090332	1.840202
1.090820	1.839780
1.091309	1.839985
1.091797	1.839782
1.092285	1.839761
1.092773	1.839987
1.093262	1.839706
1.093750	1.839952
1.094238	1.839933
1.094727	1.840027
1.095215	1.840100
1.095703	1.840162
1.096191	1.840167
1.096680	1.840013
1.097168	1.840051
1.097656	1.840265
1.098145	1.840079
1.098633	1.839938
1.099121	1.840060
1.099609	1.839851
1.100098	1.839825
1.100586	1.839924
1.101074	1.839661
1.101562	1.839728
1.102051	1.839956
1.102539	1.839922
1.103027	1.839755
1.103516	1.839905
1.104004	1.839965
1.104492	1.839814
1.104980	1.839739
1.105469	1.839680
1.105957	1.839652
1.106445	1.839485
1.106934	1.839639
1.107422	1.839642
1.107910	1.839578
1.108398	1.839534
1.108887	1.839614
1.109375	1.839922
1.109863	1.839614
1.110352	1.839614
1.110840	1.839631
1.111328	1.839354
1.111816	1.839469
1.112305	1.839484
1.112793	1.839757
1.113281	1.839655
1.113770	1.839638
1.114258	1.839583
1.114746	1.839563
1.115234	1.839688
1.115723	1.839477
1.116211	1.839717
1.116699	1.839506
1.117187	1.839593
1.117676	1.839888
1.118164	1.839763
1.118652	1.839883
1.119141	1.839890
1.119629	1.839813
1.120117	1.840256
1.120605	1.839874
1.121094	1.840029
1.121582	1.840079
1.122070	1.839861
1.122559	1.840018
1.123047	1.839867
1.123535	1.839985
1.124023	1.840064
1.124512	1.839966
1.125000	1.839989
1.125488	1.839914
1.125977	1.839915
1.126465	1.840164
1.126953	1.840007
1.127441	1.840262
1.127930	1.840369
1.128418	1.840546
1.128906	1.840524
1.129395	1.840597
1.129883	1.840546
1.130371	1.840184
1.130859	1.840600
1.131348	1.840383
1.131836	1.840470
1.132324	1.840431
1.132812	1.840574
1.133301	1.840798
1.133789	1.840575
1.134277	1.840597
1.134766	1.840447
1.135254	1.840201
1.135742	1.840447
1.136230	1.840433
1.136719	1.840028
1.137207	1.840199
1.137695	1.840407
1.138184	1.840439
1.138672	1.840158
1.139160	1.840275
1.139648	1.840362
1.140137	1.840352
1.140625	1.840574
1.141113	1.840340
1.141602	1.840509
1.142090	1.840265
1.142578	1.840470
1.143066	1.840278
1.143555	1.840165
1.144043	1.840629
1.144531	1.840382
1.145020	1.840371
1.145508	1.840268
1.145996	1.840426
1.146484	1.840300
1.146973	1.840132
1.147461	1.840569
1.147949	1.840517
1.148437	1.840303
1.148926	1.840427
1.149414	1.840262
1.149902	1.840329
1.150391	1.840431
1.150879	1.840242
1.151367	1.840436
1.151855	1.840171
1.152344	1.840219
1.152832	1.840294
1.153320	1.840290
1.153809	1.840319
1.154297	1.840266
1.154785	1.840448
1.155273	1.840526
1.155762	1.840359
1.156250	1.840395
1.156738	1.840520
1.157227	1.840627
1.157715	1.840456
1.158203	1.840483
1.158691	1.840391
1.159180	1.840468
1.159668	1.840442
1.160156	1.840577
1.160645	1.840414
1.161133	1.840636
1.161621	1.840719
1.162109	1.840540
1.162598	1.840592
1.163086	1.840467
1.163574	1.840560
1.164062	1.840684
1.164551	1.840765
1.165039	1.840646
1.165527	1.840453
1.166016	1.840527
1.166504	1.840670
1.166992	1.840549
1.167480	1.840599
1.167969	1.840519
1.168457	1.840574
1.168945	1.840564
1.169434	1.840603
1.169922	1.840650
1.170410	1.840708
1.170898	1.840740
1.171387	1.840651
1.171875	1.840698
1.172363	1.840527
1.172852	1.840489
1.173340	1.840522
1.173828	1.840779
1.174316	1.840733
1.174805	1.840767
1.175293	1.840809
1.175781	1.840713
1.176270	1.840876
1.176758	1.840685
1.177246	1.840814
1.177734	1.840806
1.178223	1.840945
1.178711	1.840925
1.179199	1.840956
1.179687	1.841021
1.180176	1.840898
1.180664	1.840895
1.181152	1.841008
1.181641	1.841016
1.182129	1.840870
1.182617	1.840825
1.183105	1.840888
1.183594	1.840837
1.184082	1.840771
1.184570	1.840812
1.185059	1.840747
1.185547	1.840886
1.186035	1.840898
1.186523	1.840912
1.187012	1.840873
1.187500	1.840999
1.187988	1.840971
1.188477	1.841142
1.188965	1.841272
1.189453	1.841125
1.189941	1.841048
1.190430	1.841244
1.190918	1.841186
1.191406	1.841142
1.191895	1.841198
1.192383	1.841085
1.192871	1.841147
1.193359	1.841136
1.193848	1.841188
1.194336	1.840800
1.194824	1.841023
1.195312	1.841040
1.195801	1.841142
1.196289	1.840981
1.196777	1.841216
1.197266	1.841122
1.197754	1.841277
1.198242	1.841338
1.198730	1.841235
1.199219	1.841222
1.199707	1.841239
1.200195	1.841424
1.200684	1.841282
1.201172	1.841264
1.201660	1.841535
1.202148	1.841101
1.202637	1.841225
1.203125	1.840987
1.203613	1.840975
1.204102	1.841189
1.204590	1.841043
1.205078	1.840911
1.205566	1.840898
1.206055	1.840996
1.206543	1.841122
1.207031	1.841065
1.207520	1.841065
1.208008	1.840919
1.208496	1.840837
1.208984	1.841037
1.209473	1.840906
1.209961	1.840747
1.210449	1.840970
1.210937	1.840936
1.211426	1.840880
1.211914	1.840871
1.212402	1.840917
1.212891	1.840965
1.213379	1.840942
1.213867	1.840962
1.214355	1.840745
1.214844	1.840928
1.215332	1.841013
1.215820	1.841217
1.216309	1.841276
1.216797	1.841140
1.217285	1.841075
1.217773	1.841218
1.218262	1.841279
1.218750	1.841366
1.219238	1.841176
1.219727	1.841400
1.220215	1.841208
1.220703	1.841276
1.221191	1.841172
1.221680	1.841248
1.222168	1.841237
1.222656	1.841054
1.223145	1.841086
1.223633	1.841129
1.224121	1.840959
1.224609	1.841095
1.225098	1.841136
1.225586	1.840970
1.226074	1.841194
1.226562	1.841168
1.227051	1.841052
1.227539	1.841173
1.228027	1.841247
1.228516	1.841270
1.229004	1.840937
1.229492	1.841140
1.229980	1.841237
1.230469	1.841059
1.230957	1.841283
1.231445	1.841115
1.231934	1.841150
1.232422	1.841027
1.232910	1.841048
1.233398	1.840832
1.233887	1.840867
1.234375	1.840973
1.234863	1.841038
1.235352	1.840956
1.235840	1.841022
1.236328	1.841083
1.236816	1.840974
1.237305	1.840927
1.237793	1.841103
1.238281	1.840989
1.238770	1.840877
1.239258	1.841061
1.239746	1.840938
1.240234	1.841022
1.240723	1.840584
1.241211	1.840758
1.241699	1.840782
1.242187	1.840897
1.242676	1.840655
1.243164	1.840937
1.243652	1.840841
1.244141	1.840765
1.244629	1.840917
1.245117	1.840985
1.245605	1.840957
1.246094	1.840918
1.246582	1.840957
1.247070	1.840846
1.247559	1.840906
1.248047	1.840951
1.248535	1.840940
1.249023	1.840831
1.249512	1.840877
1.250000	1.841034
1.250488	1.840635
1.250977	1.840505
1.251465	1.840735
1.251953	1.840639
1.252441	1.840787
1.252930	1.840594
1.253418	1.840879
1.253906	1.840984
1.254395	1.840765
1.254883	1.840796
1.255371	1.840597
1.255859	1.840766
1.256348	1.840546
1.256836	1.840664
1.257324	1.840999
1.257812	1.840854
1.258301	1.840907
1.258789	1.840854
1.259277	1.841046
1.259766	1.840896
1.260254	1.840821
1.260742	1.841053
1.261230	1.841037
1.261719	1.840967
1.262207	1.841058
1.262695	1.841173
1.263184	1.841097
1.263672	1.841010
1.264160	1.840943
1.264648	1.841456
1.265137	1.840967
1.265625	1.840854
1.266113	1.841331
1.266602	1.841052
1.267090	1.841245
1.267578	1.841075
1.268066	1.841402
1.268555	1.841523
1.269043	1.841069
1.269531	1.841194
1.270020	1.840992
1.270508	1.840957
1.270996	1.840967
1.271484	1.841010
1.271973	1.841237
1.272461	1.840987
1.272949	1.841001
1.273437	1.840988
1.273926	1.841014
1.274414	1.840967
1.274902	1.840984
1.275391	1.840928
1.275879	1.841028
1.276367	1.840978
1.276855	1.840884
1.277344	1.841198
1.277832	1.840951
1.278320	1.841214
1.278809	1.841059
1.279297	1.840862
1.279785	1.841092
1.280273	1.840785
1.280762	1.841115
1.281250	1.841100
1.281738	1.841393
1.282227	1.841190
1.282715	1.841211
1.283203	1.841114
1.283691	1.841104
1.284180	1.840935
1.284668	1.841011
1.285156	1.841036
1.285645	1.840888
1.286133	1.841034
1.286621	1.841111
1.287109	1.840982
1.287598	1.841183
1.288086	1.841357
1.288574	1.840972
1.289062	1.841369
1.289551	1.841111
1.290039	1.841094
1.290527	1.841159
1.291016	1.841050
1.291504	1.841126
1.291992	1.840934
1.292480	1.841117
1.292969	1.841297
1.293457	1.840996
1.293945	1.841303
1.294434	1.840911
1.294922	1.841086
1.295410	1.840953
1.295898	1.841139
1.296387	1.840961
1.296875	1.841011
1.297363	1.841056
1.297852	1.841190
1.298340	1.841049
1.298828	1.841009
1.299316	1.841123
1.299805	1.841086
1.300293	1.841120
1.300781	1.840829
1.301270	1.840815
1.301758	1.840981
1.302246	1.840749
1.302734	1.841140
1.303223	1.840910
1.303711	1.840805
1.304199	1.840886
1.304687	1.840805
1.305176	1.841045
1.305664	1.840597
1.306152	1.840591
1.306641	1.840720
1.307129	1.840879
1.307617	1.840696
1.308105	1.840943
1.308594	1.840875
1.309082	1.840980
1.309570	1.841185
1.310059	1.840901
1.310547	1.840902
1.311035	1.840717
1.311523	1.840906
1.312012	1.840851
1.312500	1.840738
1.312988	1.840785
1.313477	1.840872
1.313965	1.840706
1.314453	1.840666
1.314941	1.840534
1.315430	1.840767
1.315918	1.840824
1.316406	1.840668
1.316895	1.840622
1.317383	1.840967
1.317871	1.840846
1.318359	1.840822
1.318848	1.840731
1.319336	1.840944
1.319824	1.840889
1.320312	1.840461
1.320801	1.840552
1.321289	1.840715
1.321777	1.840687
1.322266	1.840710
1.322754	1.840533
1.323242	1.840775
1.323730	1.840542
1.324219	1.840715
1.324707	1.840694
1.325195	1.840632
1.325684	1.840682
1.326172	1.840796
1.326660	1.840816
1.327148	1.840718
1.327637	1.841039
1.328125	1.840836
1.328613	1.840877
1.329102	1.840983
1.329590	1.840840
1.330078	1.840724
1.330566	1.840657
1.331055	1.840727
1.331543	1.840862
1.332031	1.840667
1.332520	1.840841
1.333008	1.840555
1.333496	1.840783
1.333984	1.840564
1.334473	1.840633
1.334961	1.840618
1.335449	1.840683
1.335937	1.840807
1.336426	1.840587
1.336914	1.840906
1.337402	1.840696
1.337891	1.840862
1.338379	1.840769
1.338867	1.840762
1.339355	1.840776
1.339844	1.840512
1.340332	1.840726
1.340820	1.840807
1.341309	1.840700
1.341797	1.840441
1.342285	1.840729
1.342773	1.840547
1.343262	1.840698
1.343750	1.840318
1.344238	1.840402
1.344727	1.840589
1.345215	1.840446
1.345703	1.840677
1.346191	1.840626
1.346680	1.840525
1.347168	1.840783
1.347656	1.840777
1.348145	1.840647
1.348633	1.840500
1.349121	1.840572
1.349609	1.840941
1.350098	1.840713
1.350586	1.840639
1.351074	1.840650
1.351562	1.840769
1.352051	1.840587
1.352539	1.840570
1.353027	1.840840
1.353516	1.840809
1.354004	1.840822
1.354492	1.840852
1.354980	1.840949
1.355469	1.840912
1.355957	1.840988
1.356445	1.840968
1.356934	1.840882
1.357422	1.841089
1.357910	1.840968
1.358398	1.841120
1.358887	1.840981
1.359375	1.841245
1.359863	1.840967
1.360352	1.841185
1.360840	1.841170
1.361328	1.840661
1.361816	1.841070
1.362305	1.841004
1.362793	1.841038
1.363281	1.840966
1.363770	1.840931
1.364258	1.841146
1.364746	1.840866
1.365234	1.840709
1.365723	1.840891
1.366211	1.840763
1.366699	1.840920
1.367187	1.841068
1.367676	1.841187
1.368164	1.841118
1.368652	1.840948
1.369141	1.840940
1.369629	1.841086
1.370117	1.840853
1.370605	1.840739
1.371094	1.840942
1.371582	1.841140
1.372070	1.840838
1.372559	1.841034
1.373047	1.841144
1.373535	1.841056
1.374023	1.841151
1.374512	1.841092
1.375000	1.840889
1.375488	1.840863
1.375977	1.840716
1.376465	1.840881
1.376953	1.840832
1.377441	1.840756
1.377930	1.840985
1.378418	1.840916
1.378906	1.841082
1.379395	1.840634
1.379883	1.840779
1.380371	1.840857
1.380859	1.840575
1.381348	1.840767
1.381836	1.840600
1.382324	1.840946
1.382812	1.840794
1.383301	1.840713
1.383789	1.840896
1.384277	1.840641
1.384766	1.840635
1.385254	1.840715
1.385742	1.840860
1.386230	1.840683
1.386719	1.840842
1.387207	1.840841
1.387695	1.840702
1.388184	1.840754
1.388672	1.840447
1.389160	1.840742
1.389648	1.840358
1.390137	1.840651
1.390625	1.840817
1.391113	1.840675
1.391602	1.840823
1.392090	1.840830
1.392578	1.840784
1.393066	1.840899
1.393555	1.840761
1.394043	1.840787
1.394531	1.840906
1.395020	1.841048
1.395508	1.840990
1.395996	1.840878
1.396484	1.840971
1.396973	1.841034
1.397461	1.841117
1.397949	1.841011
1.398437	1.841045
1.398926	1.841076
1.399414	1.841212
1.399902	1.840954
1.400391	1.841307
1.400879	1.841195
1.401367	1.841086
1.401855	1.841327
1.402344	1.841151
1.402832	1.841236
1.403320	1.840771
1.403809	1.841158
1.404297	1.841195
1.404785	1.841023
1.405273	1.841324
1.405762	1.841173
1.406250	1.841176
1.406738	1.841173
1.407227	1.841241
1.407715	1.841197
1.408203	1.841189
1.408691	1.841092
1.409180	1.841193
1.409668	1.840848
1.410156	1.840907
1.410645	1.840854
1.411133	1.840838
1.411621	1.840749
1.412109	1.840825
1.412598	1.840513
1.413086	1.840856
1.413574	1.840855
1.414062	1.840990
1.414551	1.840921
1.415039	1.840827
1.415527	1.840603
1.416016	1.840853
1.416504	1.840801
1.416992	1.840751
1.417480	1.840769
1.417969	1.840854
1.418457	1.840685
1.418945	1.840562
1.419434	1.840574
1.419922	1.840414
1.420410	1.840502
1.420898	1.840291
1.421387	1.840369
1.421875	1.840162
1.422363	1.840349
1.422852	1.840217
1.423340	1.840547
1.423828	1.840285
1.424316	1.840363
1.424805	1.840292
1.425293	1.840317
1.425781	1.840495
1.426270	1.840356
1.426758	1.840471
1.427246	1.840419
1.427734	1.840573
1.428223	1.840635
1.428711	1.840513
1.429199	1.840444
1.429687	1.840701
1.430176	1.840497
1.430664	1.840744
1.431152	1.840540
1.431641	1.840489
1.432129	1.840389
1.432617	1.840386
1.433105	1.840503
1.433594	1.840420
1.434082	1.840405
1.434570	1.840437
1.435059	1.840286
1.435547	1.840399
1.436035	1.840606
1.436523	1.840549
1.437012	1.840640
1.437500	1.840480
1.437988	1.841018
1.438477	1.840811
1.438965	1.840402
1.439453	1.840766
1.439941	1.840511
1.440430	1.840707
1.440918	1.840467
1.441406	1.840677
1.441895	1.840709
1.442383	1.840697
1.442871	1.840768
1.443359	1.840804
1.443848	1.840646
1.444336	1.840765
1.444824	1.840675
1.445312	1.840724
1.445801	1.840664
1.446289	1.840520
1.446777	1.840681
1.447266	1.840785
1.447754	1.840833
1.448242	1.840873
1.448730	1.840809
1.449219	1.840771
1.449707	1.841037
1.450195	1.840935
1.450684	1.840843
1.451172	1.840827
1.451660	1.840613
1.452148	1.841129
1.452637	1.840597
1.453125	1.840860
1.453613	1.840677
1.454102	1.840741
1.454590	1.840614
1.455078	1.840852
1.455566	1.840826
1.456055	1.840860
1.456543	1.840935
1.457031	1.840922
1.457520	1.840922
1.458008	1.840884
1.458496	1.840917
1.458984	1.840906
1.459473	1.840996
1.459961	1.840880
1.460449	1.840971
1.460937	1.840757
1.461426	1.840993
1.461914	1.840745
1.462402	1.840768
1.462891	1.840818
1.463379	1.840771
1.463867	1.840725
1.464355	1.840921
1.464844	1.840831
1.465332	1.840776
1.465820	1.840664
1.466309	1.840743
1.466797	1.840698
1.467285	1.840569
1.467773	1.840670
1.468262	1.840809
1.468750	1.840651
1.469238	1.840641
1.469727	1.840890
1.470215	1.841086
1.470703	1.840600
1.471191	1.840706
1.471680	1.840655
1.472168	1.840724
1.472656	1.840826
1.473145	1.840758
1.473633	1.841091
1.474121	1.840877
1.474609	1.840788
1.475098	1.840821
1.475586	1.840781
1.476074	1.840638
1.476562	1.840549
1.477051	1.840624
1.477539	1.840650
1.478027	1.840766
1.478516	1.840807
1.479004	1.840652
1.479492	1.840539
1.479980	1.840267
1.480469	1.840421
1.480957	1.840374
1.481445	1.840381
1.481934	1.840588
1.482422	1.840412
1.482910	1.840487
1.483398	1.840607
1.483887	1.840599
1.484375	1.840579
1.484863	1.840519
1.485352	1.840688
1.485840	1.840625
1.486328	1.840560
1.486816	1.840631
1.487305	1.840680
1.487793	1.840790
1.488281	1.840478
1.488770	1.840643
1.489258	1.840715
1.489746	1.840547
1.490234	1.840679
1.490723	1.840513
1.491211	1.840506
1.491699	1.840150
1.492187	1.840215
1.492676	1.840533
1.493164	1.840534
1.493652	1.840346
1.494141	1.840422
1.494629	1.840652
1.495117	1.840451
1.495605	1.840663
1.496094	1.840655
1.496582	1.840521
1.497070	1.840453
1.497559	1.840689
1.498047	1.840401
1.498535	1.840389
1.499023	1.840541
1.499512	1.840657
1.500000	1.840558
1.500488	1.840486
1.500977	1.840605
1.501465	1.840389
1.501953	1.840455
1.502441	1.840456
1.502930	1.840456
1.503418	1.840420
1.503906	1.840117
1.504395	1.840489
1.504883	1.840504
1.505371	1.840489
1.505859	1.840448
1.506348	1.840594
1.506836	1.840491
1.507324	1.840738
1.507812	1.840630
1.508301	1.840330
1.508789	1.840354
1.509277	1.840532
1.509766	1.840322
1.510254	1.840318
1.510742	1.840065
1.511230	1.840159
1.511719	1.840211
1.512207	1.840113
1.512695	1.840336
1.513184	1.840237
1.513672	1.840376
1.514160	1.840247
1.514648	1.840206
1.515137	1.840406
1.515625	1.840077
1.516113	1.840466
1.516602	1.840423
1.517090	1.840551
1.517578	1.840571
1.518066	1.840494
1.518555	1.840403
1.519043	1.840600
1.519531	1.840510
1.520020	1.840346
1.520508	1.840508
1.520996	1.840101
1.521484	1.840278
1.521973	1.840104
1.522461	1.840232
1.522949	1.840401
1.523437	1.840370
1.523926	1.840156
1.524414	1.840347
1.524902	1.840372
1.525391	1.840519
1.525879	1.840722
1.526367	1.840520
1.526855	1.840371
1.527344	1.840646
1.527832	1.840790
1.528320	1.840871
1.528809	1.840868
1.529297	1.840559
1.529785	1.840787
1.530273	1.840582
1.530762	1.840937
1.531250	1.840451
1.531738	1.840699
1.532227	1.840968
1.532715	1.840889
1.533203	1.840884
1.533691	1.841083
1.534180	1.840963
1.534668	1.841065
1.535156	1.840934
1.535645	1.841081
1.536133	1.840956
1.536621	1.840929
1.537109	1.840947
1.537598	1.841034
1.538086	1.840876
1.538574	1.840720
1.539062	1.840994
1.539551	1.840748
1.540039	1.840984
1.540527	1.840839
1.541016	1.840908
1.541504	1.841080
1.541992	1.840619
1.542480	1.840917
1.542969	1.840857
1.543457	1.840882
1.543945	1.841090
1.544434	1.840801
1.544922	1.841276
1.545410	1.841032
1.545898	1.841007
1.546387	1.840821
1.546875	1.841128
1.547363	1.840899
1.547852	1.840940
1.548340	1.840741
1.548828	1.840877
1.549316	1.840542
1.549805	1.840804
1.550293	1.840431
1.550781	1.840393
1.551270	1.840697
1.551758	1.840643
1.552246	1.840454
1.552734	1.840553
1.553223	1.840622
1.553711	1.840471
1.554199	1.840873
1.554687	1.840624
1.555176	1.840523
1.555664	1.840487
1.556152	1.840726
1.556641	1.840386
1.557129	1.840685
1.557617	1.840516
1.558105	1.840485
1.558594	1.840369
1.559082	1.840632
1.559570	1.840226
1.560059	1.840478
1.560547	1.840323
1.561035	1.840480
1.561523	1.840109
1.562012	1.840500
1.562500	1.840290
1.562988	1.840536
1.563477	1.840681
1.563965	1.840452
1.564453	1.840427
1.564941	1.840430
1.565430	1.840550
1.565918	1.840328
1.566406	1.840425
1.566895	1.840492
1.567383	1.840495
1.567871	1.840441
1.568359	1.840306
1.568848	1.840373
1.569336	1.840369
1.569824	1.840115
1.570312	1.840375
1.570801	1.840178
1.571289	1.840291
1.571777	1.840403
1.572266	1.840273
1.572754	1.840289
1.573242	1.839977
1.573730	1.840190
1.574219	1.840453
1.574707	1.840180
1.575195	1.840051
1.575684	1.840440
1.576172	1.840350
1.576660	1.840324
1.577148	1.840306
1.577637	1.840279
1.578125	1.840265
1.578613	1.840473
1.579102	1.840329
1.579590	1.840286
1.580078	1.840300
1.580566	1.840120
1.581055	1.840412
1.581543	1.840038
1.582031	1.840301
1.582520	1.840458
1.583008	1.840298
1.583496	1.840214
1.583984	1.840085
1.584473	1.840248
1.584961	1.840001
1.585449	1.840026
1.585937	1.840104
1.586426	1.840054
1.586914	1.839982
1.587402	1.840153
1.587891	1.840156
1.588379	1.840073
1.588867	1.840110
1.589355	1.839885
1.589844	1.839796
1.590332	1.840208
1.590820	1.840096
1.591309	1.839990
1.591797	1.840172
1.592285	1.840194
1.592773	1.840007
1.593262	1.840228
1.593750	1.840133
1.594238	1.840109
1.594727	1.840114
1.595215	1.840042
1.595703	1.840278
1.596191	1.840090
1.596680	1.839969
1.597168	1.840264
1.597656	1.840154
1.598145	1.840068
1.598633	1.840043
1.599121	1.840096
1.599609	1.840102
1.600098	1.839998
1.600586	1.840074
1.601074	1.840051
1.601562	1.840121
1.602051	1.839977
1.602539	1.840209
1.603027	1.839937
1.603516	1.840056
1.604004	1.840035
1.604492	1.839944
1.604980	1.840217
1.605469	1.840233
1.605957	1.840202
1.606445	1.840172
1.606934	1.840280
1.607422	1.840347
1.607910	1.840687
1.608398	1.840231
1.608887	1.840387
1.609375	1.840336
1.609863	1.840530
1.610352	1.840447
1.610840	1.840460
1.611328	1.840228
1.611816	1.840487
1.612305	1.840551
1.612793	1.840510
1.613281	1.840581
1.613770	1.840411
1.614258	1.840769
1.614746	1.840672
1.615234	1.840735
1.615723	1.840538
1.616211	1.840745
1.616699	1.840625
1.617187	1.840848
1.617676	1.840624
1.618164	1.840639
1.618652	1.840704
1.619141	1.840838
1.619629	1.840499
1.620117	1.840592
1.620605	1.840921
1.621094	1.840870
1.621582	1.840876
1.622070	1.840885
1.622559	1.841129
1.623047	1.840949
1.623535	1.841272
1.624023	1.840984
1.624512	1.841112
1.625000	1.841236
1.625488	1.841178
1.625977	1.841311
1.626465	1.841150
1.626953	1.840979
1.627441	1.841239
1.627930	1.841045
1.628418	1.841110
1.628906	1.841309
1.629395	1.841088
1.629883	1.841139
1.630371	1.840931
1.630859	1.841120
1.631348	1.841289
1.631836	1.840851
1.632324	1.841473
1.632812	1.841272
1.633301	1.841327
1.633789	1.841510
1.634277	1.841439
1.634766	1.841217
1.635254	1.841278
1.635742	1.841390
1.636230	1.841268
1.636719	1.841105
1.637207	1.841080
1.637695	1.841160
1.638184	1.841205
1.638672	1.841282
1.639160	1.841146
1.639648	1.841355
1.640137	1.841522
1.640625	1.841109
1.641113	1.841292
1.641602	1.841039
1.642090	1.841192
1.642578	1.841065
1.643066	1.841286
1.643555	1.841084
1.644043	1.841266
1.644531	1.841251
1.645020	1.841210
1.645508	1.841081
1.645996	1.841065
1.646484	1.840957
1.646973	1.841079
1.647461	1.841055
1.647949	1.841020
1.648437	1.841030
1.648926	1.840872
1.649414	1.840865
1.649902	1.840828
1.650391	1.840918
1.650879	1.840747
1.651367	1.840732
1.651855	1.840875
1.652344	1.840917
1.652832	1.840782
1.653320	1.840575
1.653809	1.840740
1.654297	1.840726
1.654785	1.840705
1.655273	1.840664
1.655762	1.840823
1.656250	1.840844
1.656738	1.840862
1.657227	1.840922
1.657715	1.840870
1.658203	1.840979
1.658691	1.840749
1.659180	1.840884
1.659668	1.840719
1.660156	1.840819
1.660645	1.840949
1.661133	1.840794
1.661621	1.840702
1.662109	1.840708
1.662598	1.840746
1.663086	1.840547
1.663574	1.840721
1.664062	1.840730
1.664551	1.840754
1.665039	1.840666
1.665527	1.840534
1.666016	1.840871
1.666504	1.840871
1.666992	1.841023
1.667480	1.840838
1.667969	1.841025
1.668457	1.840880
1.668945	1.840881
1.669434	1.840729
1.669922	1.840912
1.670410	1.840832
1.670898	1.841145
1.671387	1.840880
1.671875	1.840955
1.672363	1.840670
1.672852	1.840921
1.673340	1.840949
1.673828	1.840681
1.674316	1.840961
1.674805	1.841008
1.675293	1.840733
1.675781	1.840743
1.676270	1.840647
1.676758	1.840772
1.677246	1.840375
1.677734	1.840586
1.678223	1.840788
1.678711	1.840665
1.679199	1.840848
1.679687	1.840665
1.680176	1.840690
1.680664	1.840452
1.681152	1.840373
1.681641	1.840336
1.682129	1.840406
1.682617	1.840242
1.683105	1.840267
1.683594	1.840021
1.684082	1.840327
1.684570	1.839970
1.685059	1.840048
1.685547	1.839995
1.686035	1.840136
1.686523	1.839801
1.687012	1.840173
1.687500	1.840185
1.687988	1.840121
1.688477	1.840250
1.688965	1.840006
1.689453	1.839951
1.689941	1.839941
1.690430	1.840063
1.690918	1.839849
1.691406	1.839790
1.691895	1.839965
1.692383	1.839869
1.692871	1.839715
1.693359	1.840065
1.693848	1.839544
1.694336	1.839789
1.694824	1.839909
1.695312	1.839943
1.695801	1.839722
1.696289	1.840049
1.696777	1.839971
1.697266	1.839949
1.697754	1.840019
1.698242	1.840285
1.698730	1.839959
1.699219	1.839962
1.699707	1.839944
1.700195	1.840113
1.700684	1.839796
1.701172	1.840008
1.701660	1.839775
1.702148	1.839893
1.702637	1.840071
1.703125	1.839941
1.703613	1.840009
1.704102	1.840201
1.704590	1.840254
1.705078	1.840153
1.705566	1.840452
1.706055	1.840303
1.706543	1.840559
1.707031	1.840408
1.707520	1.840511
1.708008	1.840332
1.708496	1.840303
1.708984	1.840447
1.709473	1.840228
1.709961	1.840700
1.710449	1.840754
1.710937	1.840445
1.711426	1.840783
1.711914	1.840381
1.712402	1.840782
1.712891	1.840938
1.713379	1.840841
1.713867	1.840693
1.714355	1.841124
1.714844	1.840928
1.715332	1.840932
1.715820	1.840959
1.716309	1.841014
1.716797	1.840774
1.717285	1.840993
1.717773	1.840993
1.718262	1.840747
1.718750	1.840649
1.719238	1.840847
1.719727	1.840767
1.720215	1.840566
1.720703	1.840732
1.721191	1.840588
1.721680	1.840499
1.722168	1.840873
1.722656	1.840504
1.723145	1.840409
1.723633	1.840640
1.724121	1.840719
1.724609	1.840789
1.725098	1.840703
1.725586	1.840573
1.726074	1.840637
1.726562	1.840774
1.727051	1.840521
1.727539	1.840661
1.728027	1.840699
1.728516	1.840571
1.729004	1.840436
1.729492	1.840368
1.729980	1.840461
1.730469	1.840458
1.730957	1.840466
1.731445	1.840541
1.731934	1.840425
1.732422	1.840669
1.732910	1.840651
1.733398	1.840304
1.733887	1.840385
1.734375	1.840556
1.734863	1.840436
1.735352	1.840520
1.735840	1.840531
1.736328	1.840491
1.736816	1.840272
1.737305	1.840514
1.737793	1.840415
1.738281	1.840449
1.738770	1.840380
1.739258	1.840542
1.739746	1.840240
1.740234	1.840594
1.740723	1.840441
1.741211	1.840469
1.741699	1.840538
1.742187	1.840430
1.742676	1.840413
1.743164	1.840481
1.743652	1.840485
1.744141	1.840370
1.744629	1.840365
1.745117	1.840502
1.745605	1.840405
1.746094	1.840351
1.746582	1.840503
1.747070	1.840485
1.747559	1.840438
1.748047	1.840407
1.748535	1.840445
1.749023	1.840513
1.749512	1.840482
1.750000	1.840384
1.750488	1.840536
1.750977	1.840340
1.751465	1.840597
1.751953	1.840516
1.752441	1.840452
1.752930	1.840332
1.753418	1.840422
1.753906	1.840403
1.754395	1.840431
1.754883	1.840492
1.755371	1.840574
1.755859	1.840369
1.756348	1.840552
1.756836	1.840511
1.757324	1.840486
1.757812	1.840592
1.758301	1.840517
1.758789	1.840581
1.759277	1.840616
1.759766	1.840672
1.760254	1.840630
1.760742	1.840680
1.761230	1.840492
1.761719	1.840528
1.762207	1.840539
1.762695	1.840631
1.763184	1.840398
1.763672	1.840360
1.764160	1.840674
1.764648	1.840483
1.765137	1.840492
1.765625	1.840308
1.766113	1.840268
1.766602	1.840589
1.767090	1.840414
1.767578	1.840586
1.768066	1.840449
1.768555	1.840611
1.769043	1.840350
1.769531	1.840740
1.770020	1.840658
1.770508	1.840796
1.770996	1.840720
1.771484	1.840793
1.771973	1.840744
1.772461	1.840672
1.772949	1.840815
1.773437	1.840896
1.773926	1.840726
1.774414	1.840820
1.774902	1.840702
1.775391	1.840589
1.775879	1.840806
1.776367	1.840657
1.776855	1.840598
1.777344	1.840698
1.777832	1.840372
1.778320	1.840370
1.778809	1.840513
1.779297	1.840343
1.779785	1.840505
1.780273	1.840321
1.780762	1.840809
1.781250	1.840670
1.781738	1.840381
1.782227	1.840484
1.782715	1.840333
1.783203	1.840439
1.783691	1.840431
1.784180	1.840494
1.784668	1.840476
1.785156	1.840440
1.785645	1.840540
1.786133	1.840411
1.786621	1.840405
1.787109	1.840280
1.787598	1.840436
1.788086	1.840248
1.788574	1.840351
1.789062	1.840224
1.789551	1.840254
1.790039	1.840286
1.790527	1.840219
1.791016	1.840315
1.791504	1.839848
1.791992	1.840001
1.792480	1.840160
1.792969	1.840019
1.793457	1.840144
1.793945	1.840032
1.794434	1.840380
1.794922	1.840345
1.795410	1.840239
1.795898	1.840107
1.796387	1.840288
1.796875	1.840238
1.797363	1.840146
1.797852	1.840186
1.798340	1.840168
1.798828	1.840289
1.799316	1.840305
1.799805	1.840562
1.800293	1.840394
1.800781	1.840452
1.801270	1.840535
1.801758	1.840143
1.802246	1.840516
1.802734	1.840438
1.803223	1.840442
1.803711	1.840461
1.804199	1.840362
1.804687	1.840764
1.805176	1.840448
1.805664	1.840473
1.806152	1.840414
1.806641	1.840682
1.807129	1.840390
1.807617	1.840463
1.808105	1.840115
1.808594	1.840372
1.809082	1.840343
1.809570	1.840473
1.810059	1.840392
1.810547	1.840342
1.811035	1.840532
1.811523	1.840393
1.812012	1.840433
1.812500	1.840441
1.812988	1.840411
1.813477	1.840562
1.813965	1.840533
1.814453	1.840563
1.814941	1.840465
1.815430	1.840502
1.815918	1.840272
1.816406	1.840589
1.816895	1.840602
1.817383	1.840556
1.817871	1.840480
1.818359	1.840500
1.818848	1.840218
1.819336	1.840278
1.819824	1.840320
1.820312	1.840189
1.820801	1.840351
1.821289	1.840353
1.821777	1.840413
1.822266	1.840289
1.822754	1.840067
1.823242	1.840032
1.823730	1.840297
1.824219	1.840071
1.824707	1.839985
1.825195	1.839955
1.825684	1.840068
1.826172	1.839839
1.826660	1.839894
1.827148	1.839808
1.827637	1.839908
1.828125	1.840076
1.828613	1.839803
1.829102	1.840035
1.829590	1.839915
1.830078	1.839990
1.830566	1.839998
1.831055	1.840057
1.831543	1.840065
1.832031	1.840303
1.832520	1.840138
1.833008	1.840251
1.833496	1.840046
1.833984	1.839964
1.834473	1.840063
1.834961	1.839927
1.835449	1.840101
1.835937	1.840157
1.836426	1.839991
1.836914	1.840060
1.837402	1.840038
1.837891	1.840102
1.838379	1.840037
1.838867	1.840015
1.839355	1.840109
1.839844	1.840087
1.840332	1.840102
1.840820	1.840104
1.841309	1.839973
1.841797	1.839865
1.842285	1.840142
1.842773	1.840201
1.843262	1.840065
1.843750	1.840058
1.844238	1.840063
1.844727	1.840319
1.845215	1.840212
1.845703	1.840317
1.846191	1.840364
1.846680	1.840365
1.847168	1.840464
1.847656	1.840400
1.848145	1.840376
1.848633	1.840142
1.849121	1.840322
1.849609	1.840577
1.850098	1.840610
1.850586	1.840309
1.851074	1.840289
1.851562	1.840303
1.852051	1.840213
1.852539	1.840372
1.853027	1.840102
1.853516	1.840383
1.854004	1.840248
1.854492	1.840196
1.854980	1.840167
1.855469	1.840178
1.855957	1.840026
1.856445	1.839921
1.856934	1.840048
1.857422	1.839985
1.857910	1.840053
1.858398	1.840207
1.858887	1.840126
1.859375	1.840041
1.859863	1.840164
1.860352	1.840082
1.860840	1.840192
1.861328	1.840027
1.861816	1.840162
1.862305	1.840059
1.862793	1.840269
1.863281	1.840137
1.863770	1.839896
1.864258	1.840012
1.864746	1.839993
1.865234	1.840121
1.865723	1.839876
1.866211	1.840073
1.866699	1.840234
1.867187	1.840184
1.867676	1.840234
1.868164	1.840015
1.868652	1.840009
1.869141	1.840308
1.869629	1.839980
1.870117	1.840174
1.870605	1.840245
1.871094	1.839731
1.871582	1.840082
1.872070	1.840008
1.872559	1.839916
1.873047	1.839923
1.873535	1.840120
1.874023	1.840261
1.874512	1.840068
1.875000	1.840085
1.875488	1.840032
1.875977	1.840029
1.876465	1.840204
1.876953	1.840139
1.877441	1.840360
1.877930	1.840495
1.878418	1.840483
1.878906	1.840312
1.879395	1.840279
1.879883	1.840211
1.880371	1.840356
1.880859	1.840338
1.881348	1.840391
1.881836	1.840382
1.882324	1.840381
1.882812	1.840156
1.883301	1.840293
1.883789	1.840418
1.884277	1.840156
1.884766	1.840613
1.885254	1.840431
1.885742	1.840599
1.886230	1.840340
1.886719	1.840292
1.887207	1.840513
1.887695	1.840351
1.888184	1.840528
1.888672	1.840499
1.889160	1.840827
1.889648	1.840620
1.890137	1.840956
1.890625	1.840703
1.891113	1.840711
1.891602	1.840820
1.892090	1.840952
1.892578	1.840939
1.893066	1.840566
1.893555	1.840803
1.894043	1.841086
1.894531	1.841015
1.895020	1.840891
1.895508	1.841082
1.895996	1.841112
1.896484	1.841050
1.896973	1.841272
1.897461	1.841095
1.897949	1.841155
1.898437	1.840855
1.898926	1.840960
1.899414	1.841179
1.899902	1.841030
1.900391	1.841045
1.900879	1.840954
1.901367	1.840764
1.901855	1.840842
1.902344	1.841013
1.902832	1.840538
1.903320	1.840546
1.903809	1.840946
1.904297	1.840940
1.904785	1.840859
1.905273	1.840785
1.905762	1.841084
1.906250	1.840866
1.906738	1.840969
1.907227	1.840915
1.907715	1.840883
1.908203	1.840854
1.908691	1.840935
1.909180	1.840876
1.909668	1.841151
1.910156	1.840767
1.910645	1.840934
1.911133	1.841059
1.911621	1.840998
1.912109	1.840813
1.912598	1.840815
1.913086	1.840807
1.913574	1.840893
1.914062	1.840972
1.914551	1.840845
1.915039	1.840901
1.915527	1.840972
1.916016	1.841079
1.916504	1.840869
1.916992	1.841104
1.917480	1.840982
1.917969	1.841178
1.918457	1.840914
1.918945	1.841156
1.919434	1.840864
1.919922	1.840928
1.920410	1.840907
1.920898	1.841206
1.921387	1.840915
1.921875	1.841031
1.922363	1.840711
1.922852	1.840853
1.923340	1.840866
1.923828	1.840826
1.924316	1.840828
1.924805	1.841046
1.925293	1.840790
1.925781	1.840876
1.926270	1.840969
1.926758	1.840999
1.927246	1.840935
1.927734	1.840782
1.928223	1.840976
1.928711	1.840791
1.929199	1.840912
1.929687	1.840918
1.930176	1.840952
1.930664	1.841264
1.931152	1.841025
1.931641	1.841003
1.932129	1.840907
1.932617	1.840736
1.933105	1.840954
1.933594	1.840993
1.934082	1.841169
1.934570	1.841079
1.935059	1.841280
1.935547	1.841104
1.936035	1.841067
1.936523	1.840868
1.937012	1.840987
1.937500	1.841014
1.937988	1.841061
1.938477	1.841087
1.938965	1.841050
1.939453	1.841178
1.939941	1.841021
1.940430	1.841145
1.940918	1.841162
1.941406	1.841247
1.941895	1.841264
1.942383	1.841313
1.942871	1.841207
1.943359	1.841021
1.943848	1.841297
1.944336	1.841301
1.944824	1.841241
1.945312	1.841231
1.945801	1.841294
1.946289	1.841326
1.946777	1.841129
1.947266	1.841190
1.947754	1.841387
1.948242	1.841147
1.948730	1.841140
1.949219	1.841178
1.949707	1.841362
1.950195	1.841138
1.950684	1.841089
1.951172	1.840888
1.951660	1.840934
1.952148	1.841224
1.952637	1.840688
1.953125	1.840968
1.953613	1.841175
1.954102	1.841061
1.954590	1.841012
1.955078	1.841178
1.955566	1.840964
1.956055	1.841122
1.956543	1.841004
1.957031	1.841150
1.957520	1.840948
1.958008	1.840885
1.958496	1.840908
1.958984	1.840642
1.959473	1.840876
1.959961	1.840887
1.960449	1.840684
1.960937	1.840735
1.961426	1.840501
1.961914	1.840671
1.962402	1.840319
1.962891	1.840380
1.963379	1.840656
1.963867	1.840608
1.964355	1.840636
1.964844	1.840619
1.965332	1.840778
1.965820	1.840381
1.966309	1.840459
1.966797	1.840600
1.967285	1.840713
1.967773	1.840681
1.968262	1.840722
1.968750	1.840616
1.969238	1.840574
1.969727	1.840549
1.970215	1.840588
1.970703	1.840476
1.971191	1.840544
1.971680	1.840517
1.972168	1.840350
1.972656	1.840496
1.973145	1.840639
1.973633	1.840683
1.974121	1.840563
1.974609	1.840614
1.975098	1.840849
1.975586	1.840834
1.976074	1.840425
1.976562	1.840730
1.977051	1.840502
1.977539	1.840787
1.978027	1.840824
1.978516	1.840782
1.979004	1.840664
1.979492	1.840718
1.979980	1.840769
1.980469	1.840770
1.980957	1.840513
1.981445	1.840708
1.981934	1.840519
1.982422	1.840783
1.982910	1.840740
1.983398	1.840713
1.983887	1.840554
1.984375	1.840777
1.984863	1.840483
1.985352	1.840628
1.985840	1.840563
1.986328	1.840572
1.986816	1.840569
1.987305	1.840382
1.987793	1.840618
1.988281	1.840616
1.988770	1.840406
1.989258	1.840723
1.989746	1.840638
1.990234	1.840571
1.990723	1.840514
1.991211	1.840575
1.991699	1.840140
1.992187	1.840614
1.992676	1.840494
1.993164	1.840441
1.993652	1.840675
1.994141	1.840527
1.994629	1.840663
1.995117	1.840467
1.995605	1.840487
1.996094	1.840460
1.996582	1.840657
1.997070	1.840483
1.997559	1.840665
1.998047	1.840862
1.998535	1.840582
1.999023	1.840507
1.999512	1.840815
2.000000	1.840769
2.000488	1.840741
2.000977	1.840488
2.001465	1.840661
2.001953	1.840646
2.002441	1.840479
2.002930	1.840580
2.003418	1.840383
2.003906	1.840376
2.004395	1.840082
2.004883	1.840285
2.005371	1.840045
2.005859	1.840304
2.006348	1.840172
2.006836	1.840332
2.007324	1.840393
2.007812	1.840267
2.008301	1.840289
2.008789	1.840398
2.009277	1.840413
2.009766	1.840553
2.010254	1.840531
2.010742	1.840146
2.011230	1.840369
2.011719	1.840475
2.012207	1.840315
2.012695	1.840477
2.013184	1.840453
2.013672	1.840469
2.014160	1.840664
2.014648	1.840583
2.015137	1.840264
2.015625	1.840564
2.016113	1.840819
2.016602	1.840635
2.017090	1.840444
2.017578	1.840648
2.018066	1.840471
2.018555	1.840589
2.019043	1.840591
2.019531	1.840546
2.020020	1.840387
2.020508	1.840702
2.020996	1.840416
2.021484	1.840735
2.021973	1.840675
2.022461	1.840690
2.022949	1.840933
2.023437	1.840777
2.023926	1.840871
2.024414	1.840796
2.024902	1.840883
2.025391	1.840776
2.025879	1.840796
2.026367	1.840569
2.026855	1.840937
2.027344	1.840809
2.027832	1.840935
2.028320	1.840693
2.028809	1.840733
2.029297	1.840771
2.029785	1.840902
2.030273	1.840667
2.030762	1.840833
2.031250	1.840776
2.031738	1.840708
2.032227	1.840995
2.032715	1.840770
2.033203	1.840843
2.033691	1.840575
2.034180	1.840613
2.034668	1.840303
2.035156	1.840566
2.035645	1.840662
2.036133	1.840516
2.036621	1.840557
2.037109	1.840754
2.037598	1.840613
2.038086	1.840581
2.038574	1.840708
2.039062	1.840599
2.039551	1.840747
2.040039	1.840605
2.040527	1.840782
2.041016	1.840433
2.041504	1.840698
2.041992	1.840490
2.042480	1.840491
2.042969	1.840610
2.043457	1.840636
2.043945	1.840420
2.044434	1.840688
2.044922	1.840621
2.045410	1.840608
2.045898	1.840660
2.046387	1.840639
2.046875	1.840668
2.047363	1.840438
2.047852	1.840552
2.048340	1.840282
2.048828	1.840423
2.049316	1.840542
2.049805	1.840404
2.050293	1.840383
2.050781	1.840394
2.051270	1.840453
2.051758	1.840071
2.052246	1.840220
2.052734	1.840268
2.053223	1.840310
2.053711	1.840223
2.054199	1.840477
2.054687	1.840512
2.055176	1.840005
2.055664	1.840191
2.056152	1.840288
2.056641	1.840185
2.057129	1.840164
2.057617	1.840082
2.058105	1.840373
2.058594	1.840119
2.059082	1.840514
2.059570	1.840121
2.060059	1.840442
2.060547	1.840423
2.061035	1.840024
2.061523	1.840226
2.062012	1.840248
2.062500	1.840073
2.062988	1.840237
2.063477	1.840111
2.063965	1.840384
2.064453	1.839932
2.064941	1.839831
2.065430	1.839969
2.065918	1.839750
2.066406	1.840043
2.066895	1.839767
2.067383	1.840101
2.067871	1.840137
2.068359	1.840117
2.068848	1.840071
2.069336	1.839974
2.069824	1.840181
2.070312	1.840109
2.070801	1.840275
2.071289	1.840372
2.071777	1.840162
2.072266	1.840054
2.072754	1.840272
2.073242	1.840251
2.073730	1.840087
2.074219	1.840193
2.074707	1.840216
2.075195	1.840265
2.075684	1.840182
2.076172	1.840239
2.076660	1.840307
2.077148	1.839909
2.077637	1.840236
2.078125	1.840190
2.078613	1.840052
2.079102	1.840084
2.079590	1.839927
2.080078	1.840084
2.080566	1.840046
2.081055	1.840266
2.081543	1.840129
2.082031	1.840184
2.082520	1.840157
2.083008	1.840241
2.083496	1.840301
2.083984	1.840358
2.084473	1.840156
2.084961	1.840225
2.085449	1.840347
2.085937	1.840456
2.086426	1.840122
2.086914	1.840418
2.087402	1.840230
2.087891	1.840254
2.088379	1.840179
2.088867	1.840487
2.089355	1.840307
2.089844	1.840369
2.090332	1.840709
2.090820	1.840364
2.091309	1.840604
2.091797	1.840379
2.092285	1.840223
2.092773	1.840550
2.093262	1.840351
2.093750	1.840148
2.094238	1.840303
2.094727	1.840137
2.095215	1.840296
2.095703	1.840481
2.096191	1.840344
2.096680	1.840299
2.097168	1.840339
2.097656	1.840275
2.098145	1.840355
2.098633	1.840398
2.099121	1.840351
2.099609	1.840106
2.100098	1.840477
2.100586	1.840336
2.101074	1.840217
2.101562	1.840065
2.102051	1.840197
2.102539	1.840253
2.103027	1.840164
2.103516	1.840288
2.104004	1.840055
2.104492	1.840166
2.104980	1.840312
2.105469	1.840184
2.105957	1.839950
2.106445	1.840217
2.106934	1.840250
2.107422	1.840192
2.107910	1.840087
2.108398	1.840265
2.108887	1.840185
2.109375	1.840139
2.109863	1.840164
2.110352	1.840170
2.110840	1.840172
2.111328	1.840020
2.111816	1.840026
2.112305	1.840043
2.112793	1.840333
2.113281	1.840019
2.113770	1.840330
2.114258	1.840501
2.114746	1.840583
2.115234	1.840405
2.115723	1.840566
2.116211	1.840555
2.116699	1.840656
2.117187	1.840799
2.117676	1.840417
2.118164	1.840549
2.118652	1.840601
2.119141	1.840577
2.119629	1.840468
2.120117	1.840404
2.120605	1.840401
2.121094	1.840417
2.121582	1.840229
2.122070	1.840376
2.122559	1.840284
2.123047	1.840364
2.123535	1.840380
2.124023	1.840201
2.124512	1.840327
2.125000	1.840318
2.125488	1.840325
2.125977	1.840204
2.126465	1.840313
2.126953	1.840509
2.127441	1.840403
2.127930	1.840420
2.128418	1.840379
2.128906	1.840376
2.129395	1.840531
2.129883	1.840230
2.130371	1.840513
2.130859	1.840376
2.131348	1.840133
2.131836	1.840347
2.132324	1.840151
2.132812	1.840076
2.133301	1.840168
2.133789	1.840250
2.134277	1.840243
2.134766	1.840253
2.135254	1.840119
2.135742	1.840541
2.136230	1.840273
2.136719	1.840177
2.137207	1.840119
2.137695	1.840448
2.138184	1.840294
2.138672	1.840270
2.139160	1.840233
2.139648	1.840204
2.140137	1.840171
2.140625	1.840239
2.141113	1.840238
2.141602	1.840058
2.142090	1.840214
2.142578	1.839974
2.143066	1.840324
2.143555	1.840120
2.144043	1.840276
2.144531	1.840262
2.145020	1.840258
2.145508	1.840026
2.145996	1.840028
2.146484	1.840275
2.146973	1.840126
2.147461	1.840141
2.147949	1.840304
2.148437	1.840110
2.148926	1.840223
2.149414	1.840181
2.149902	1.840260
2.150391	1.840255
2.150879	1.840075
2.151367	1.840332
2.151855	1.840220
2.152344	1.840160
2.152832	1.840484
2.153320	1.840411
2.153809	1.840124
2.154297	1.840262
2.154785	1.840265
2.155273	1.840288
2.155762	1.840176
2.156250	1.840209
2.156738	1.840206
2.157227	1.840275
2.157715	1.840389
2.158203	1.840360
2.158691	1.840461
2.159180	1.840639
2.159668	1.840204
2.160156	1.840385
2.160645	1.840465
2.161133	1.840412
2.161621	1.840527
2.162109	1.840477
2.162598	1.840718
2.163086	1.840478
2.163574	1.840489
2.164062	1.840489
2.164551	1.840263
2.165039	1.840436
2.165527	1.840383
2.166016	1.840466
2.166504	1.840483
2.166992	1.840350
2.167480	1.840310
2.167969	1.840644
2.168457	1.840481
2.168945	1.840414
2.169434	1.840450
2.169922	1.840458
2.170410	1.840419
2.170898	1.840359
2.171387	1.840774
2.171875	1.840358
2.172363	1.840473
2.172852	1.840589
2.173340	1.840387
2.173828	1.840538
2.174316	1.840382
2.174805	1.840373
2.175293	1.840553
2.175781	1.840381
2.176270	1.840799
2.176758	1.840574
2.177246	1.840477
2.177734	1.840448
2.178223	1.840829
2.178711	1.840494
2.179199	1.840483
2.179687	1.840509
2.180176	1.840602
2.180664	1.840359
2.181152	1.840410
2.181641	1.840457
2.182129	1.840480
2.182617	1.840610
2.183105	1.840583
2.183594	1.840467
2.184082	1.840378
2.184570	1.840491
2.185059	1.840513
2.185547	1.840669
2.186035	1.840374
2.186523	1.840312
2.187012	1.840425
2.187500	1.840571
2.187988	1.840705
2.188477	1.840660
2.188965	1.840544
2.189453	1.840503
2.189941	1.840440
2.190430	1.840479
2.190918	1.840255
2.191406	1.840589
2.191895	1.840215
2.192383	1.840547
2.192871	1.840692
2.193359	1.840636
2.193848	1.840539
2.194336	1.840604
2.194824	1.840557
2.195312	1.840691
2.195801	1.840630
2.196289	1.840511
2.196777	1.840516
2.197266	1.840431
2.197754	1.840660
2.198242	1.840425
2.198730	1.840385
2.199219	1.840428
2.199707	1.840711
2.200195	1.840592
2.200684	1.840674
2.201172	1.840663
2.201660	1.840611
2.202148	1.840801
2.202637	1.840539
2.203125	1.840784
2.203613	1.840821
2.204102	1.840743
2.204590	1.840628
2.205078	1.840771
2.205566	1.840589
2.206055	1.840820
2.206543	1.840938
2.207031	1.840714
2.207520	1.840803
2.208008	1.840918
2.208496	1.840873
2.208984	1.840918
2.209473	1.840884
2.209961	1.840948
2.210449	1.840955
2.210937	1.840960
2.211426	1.840699
2.211914	1.840987
2.212402	1.840497
2.212891	1.840528
2.213379	1.840859
2.213867	1.840541
2.214355	1.840982
2.214844	1.840728
2.215332	1.840819
2.215820	1.840860
2.216309	1.840912
2.216797	1.840901
2.217285	1.840943
2.217773	1.841018
2.218262	1.840860
2.218750	1.840957
2.219238	1.841233
2.219727	1.840893
2.220215	1.840951
2.220703	1.840669
2.221191	1.840687
2.221680	1.840806
2.222168	1.840599
2.222656	1.840596
2.223145	1.840727
2.223633	1.840589
2.224121	1.840690
2.224609	1.840974
2.225098	1.840824
2.225586	1.841043
2.226074	1.840986
2.226562	1.840861
2.227051	1.840677
2.227539	1.840916
2.228027	1.840967
2.228516	1.840890
2.229004	1.841082
2.229492	1.841045
2.229980	1.841026
2.230469	1.840978
2.230957	1.841214
2.231445	1.840844
2.231934	1.840833
2.232422	1.840987
2.232910	1.840974
2.233398	1.840887
2.233887	1.840921
2.234375	1.840730
2.234863	1.840752
2.235352	1.840939
2.235840	1.840978
2.236328	1.840940
2.236816	1.840707
2.237305	1.840908
2.237793	1.841098
2.238281	1.841022
2.238770	1.840740
2.239258	1.840775
2.239746	1.840781
2.240234	1.841092
2.240723	1.840702
2.241211	1.840496
2.241699	1.840681
2.242187	1.840696
2.242676	1.840660
2.243164	1.840600
2.243652	1.840645
2.244141	1.840335
2.244629	1.840621
2.245117	1.840577
2.245605	1.840318
2.246094	1.840418
2.246582	1.840424
2.247070	1.840592
2.247559	1.840352
2.248047	1.840665
2.248535	1.840630
2.249023	1.840444
2.249512	1.840683
2.250000	1.840372
2.250488	1.840594
2.250977	1.840437
2.251465	1.840556
2.251953	1.840522
2.252441	1.840696
2.252930	1.840450
2.253418	1.840530
2.253906	1.840505
2.254395	1.840661
2.254883	1.840675
2.255371	1.840641
2.255859	1.840345
2.256348	1.840529
2.256836	1.840488
2.257324	1.840450
2.257812	1.840517
2.258301	1.840669
2.258789	1.840536
2.259277	1.840559
2.259766	1.840588
2.260254	1.840555
2.260742	1.840549
2.261230	1.840486
2.261719	1.840526
2.262207	1.840370
2.262695	1.840486
2.263184	1.840333
2.263672	1.840433
2.264160	1.840431
2.264648	1.840538
2.265137	1.840215
2.265625	1.840435
2.266113	1.840340
2.266602	1.840670
2.267090	1.840330
2.267578	1.840332
2.268066	1.840487
2.268555	1.840436
2.269043	1.840340
2.269531	1.840249
2.270020	1.840142
2.270508	1.840291
2.270996	1.840422
2.271484	1.840335
2.271973	1.840349
2.272461	1.840060
2.272949	1.840473
2.273437	1.840371
2.273926	1.839841
2.274414	1.840212
2.274902	1.840017
2.275391	1.840005
2.275879	1.840078
2.276367	1.840137
2.276855	1.840165
2.277344	1.840323
2.277832	1.840448
2.278320	1.840401
2.278809	1.840498
2.279297	1.840179
2.279785	1.840268
2.280273	1.840624
2.280762	1.840232
2.281250	1.840634
2.281738	1.840435
2.282227	1.840298
2.282715	1.840135
2.283203	1.840509
2.283691	1.840346
2.284180	1.840491
2.284668	1.840261
2.285156	1.840391
2.285645	1.840510
2.286133	1.840467
2.286621	1.840606
2.287109	1.840465
2.287598	1.840702
2.288086	1.840773
2.288574	1.840535
2.289062	1.840769
2.289551	1.840673
2.290039	1.840850
2.290527	1.840715
2.291016	1.840613
2.291504	1.840829
2.291992	1.840478
2.292480	1.840610
2.292969	1.840702
2.293457	1.840765
2.293945	1.840727
2.294434	1.840769
2.294922	1.840987
2.295410	1.840993
2.295898	1.840655
2.296387	1.840811
2.296875	1.840702
2.297363	1.841065
2.297852	1.840993
2.298340	1.840909
2.298828	1.840884
2.299316	1.840854
2.299805	1.840915
2.300293	1.840710
2.300781	1.840923
2.301270	1.840488
2.301758	1.840801
2.302246	1.841072
2.302734	1.840619
2.303223	1.840928
2.303711	1.840724
2.304199	1.840637
2.304687	1.840740
2.305176	1.840794
2.305664	1.840503
2.306152	1.840531
2.306641	1.840747
2.307129	1.840673
2.307617	1.840769
2.308105	1.840713
2.308594	1.840770
2.309082	1.840822
2.309570	1.840669
2.310059	1.840838
2.310547	1.840848
2.311035	1.840654
2.311523	1.840567
2.312012	1.840704
2.312500	1.840766
2.312988	1.840711
2.313477	1.840613
2.313965	1.840544
2.314453	1.840618
2.314941	1.840639
2.315430	1.840629
2.315918	1.840257
2.316406	1.840476
2.316895	1.840570
2.317383	1.840594
2.317871	1.840498
2.318359	1.840492
2.318848	1.840488
2.319336	1.840516
2.319824	1.840342
2.320312	1.840482
2.320801	1.840355
2.321289	1.840396
2.321777	1.840674
2.322266	1.840043
2.322754	1.840476
2.323242	1.840401
2.323730	1.840248
2.324219	1.840204
2.324707	1.840519
2.325195	1.840476
2.325684	1.840433
2.326172	1.840480
2.326660	1.840501
2.327148	1.840217
2.327637	1.840881
2.328125	1.840488
2.328613	1.840962
2.329102	1.840969
2.329590	1.840546
2.330078	1.840646
2.330566	1.840674
2.331055	1.840740
2.331543	1.840639
2.332031	1.840593
2.332520	1.840536
2.333008	1.840610
2.333496	1.840526
2.333984	1.840582
2.334473	1.840561
2.334961	1.840513
2.335449	1.840733
2.335937	1.840375
2.336426	1.840446
2.336914	1.840347
2.337402	1.840369
2.337891	1.840524
2.338379	1.840483
2.338867	1.840746
2.339355	1.840430
2.339844	1.840238
2.340332	1.840408
2.340820	1.840330
2.341309	1.840454
2.341797	1.840401
2.342285	1.840511
2.342773	1.840613
2.343262	1.840677
2.343750	1.840500
2.344238	1.840514
2.344727	1.840748
2.345215	1.840517
2.345703	1.840676
2.346191	1.840320
2.346680	1.840602
2.347168	1.840358
2.347656	1.840502
2.348145	1.840323
2.348633	1.840413
2.349121	1.840555
2.349609	1.840419
2.350098	1.840440
2.350586	1.840142
2.351074	1.840195
2.351562	1.840059
2.352051	1.840295
2.352539	1.840052
2.353027	1.840240
2.353516	1.840148
2.354004	1.840261
2.354492	1.840365
2.354980	1.840218
2.355469	1.840182
2.355957	1.840431
2.356445	1.840456
2.356934	1.840299
2.357422	1.840400
2.357910	1.840618
2.358398	1.840655
2.358887	1.840597
2.359375	1.840401
2.359863	1.840591
2.360352	1.840398
2.360840	1.840038
2.361328	1.840278
2.361816	1.839899
2.362305	1.840237
2.362793	1.840068
2.363281	1.840416
2.363770	1.840332
2.364258	1.840248
2.364746	1.840260
2.365234	1.840160
2.365723	1.840229
2.366211	1.840125
2.366699	1.840169
2.367187	1.840458
2.367676	1.840164
2.368164	1.840442
2.368652	1.840332
2.369141	1.840282
2.369629	1.840466
2.370117	1.840282
2.370605	1.840432
2.371094	1.840459
2.371582	1.840485
2.372070	1.840229
2.372559	1.840598
2.373047	1.840347
2.373535	1.840724
2.374023	1.840526
2.374512	1.840489
2.375000	1.840282
2.375488	1.840478
2.375977	1.840408
2.376465	1.840173
2.376953	1.840203
2.377441	1.840087
2.377930	1.840387
2.378418	1.840306
2.378906	1.840381
2.379395	1.840345
2.379883	1.840499
2.380371	1.840450
2.380859	1.840303
2.381348	1.840350
2.381836	1.840333
2.382324	1.840663
2.382812	1.840570
2.383301	1.840345
2.383789	1.840641
2.384277	1.840328
2.384766	1.840345
2.385254	1.840524
2.385742	1.840597
2.386230	1.840456
2.386719	1.840577
2.387207	1.840891
2.387695	1.840807
2.388184	1.840616
2.388672	1.840717
2.389160	1.840592
2.389648	1.840556
2.390137	1.840606
2.390625	1.840812
2.391113	1.840315
2.391602	1.840815
2.392090	1.840736
2.392578	1.840544
2.393066	1.840830
2.393555	1.840740
2.394043	1.840645
2.394531	1.840709
2.395020	1.840892
2.395508	1.840504
2.395996	1.840741
2.396484	1.840574
2.396973	1.840866
2.397461	1.840690
2.397949	1.840832
2.398437	1.840814
2.398926	1.840831
2.399414	1.841140
2.399902	1.840521
2.400391	1.840888
2.400879	1.840731
2.401367	1.840575
2.401855	1.840923
2.402344	1.840924
2.402832	1.841205
2.403320	1.840901
2.403809	1.840865
2.404297	1.840897
2.404785	1.840450
2.405273	1.840625
2.405762	1.840516
2.406250	1.840692
2.406738	1.840317
2.407227	1.840810
2.407715	1.840629
2.408203	1.840530
2.408691	1.840479
2.409180	1.840716
2.409668	1.840524
2.410156	1.840915
2.410645	1.840724
2.411133	1.840340
2.411621	1.840490
2.412109	1.840437
2.412598	1.840639
2.413086	1.840575
2.413574	1.840580
2.414062	1.840551
2.414551	1.840710
2.415039	1.840483
2.415527	1.840514
2.416016	1.840508
2.416504	1.840607
2.416992	1.840589
2.417480	1.840619
2.417969	1.840632
2.418457	1.840637
2.418945	1.840736
2.419434	1.840749
2.419922	1.840650
2.420410	1.840552
2.420898	1.840683
2.421387	1.840486
2.421875	1.840696
2.422363	1.840644
2.422852	1.840902
2.423340	1.840873
2.423828	1.840614
2.424316	1.840702
2.424805	1.840618
2.425293	1.840960
2.425781	1.840752
2.426270	1.840759
2.426758	1.840883
2.427246	1.840961
2.427734	1.841016
2.428223	1.841112
2.428711	1.841075
2.429199	1.840999
2.429687	1.840774
2.430176	1.841347
2.430664	1.841067
2.431152	1.841078
2.431641	1.841017
2.432129	1.841047
2.432617	1.841173
2.433105	1.840716
2.433594	1.841142
2.434082	1.841243
2.434570	1.841017
2.435059	1.841241
2.435547	1.841046
2.436035	1.840892
2.436523	1.841136
2.437012	1.841020
2.437500	1.840954
2.437988	1.841183
2.438477	1.840885
2.438965	1.841196
2.439453	1.841097
2.439941	1.841115
2.440430	1.840981
2.440918	1.841109
2.441406	1.841164
2.441895	1.840970
2.442383	1.841069
2.442871	1.841009
2.443359	1.840845
2.443848	1.840727
2.444336	1.840763
2.444824	1.840857
2.445312	1.840915
2.445801	1.840782
2.446289	1.840961
2.446777	1.841041
2.447266	1.840655
2.447754	1.840871
2.448242	1.840879
2.448730	1.840859
2.449219	1.840761
2.449707	1.840843
2.450195	1.840764
2.450684	1.840671
2.451172	1.840696
2.451660	1.840672
2.452148	1.840572
2.452637	1.840666
2.453125	1.840663
2.453613	1.840630
2.454102	1.840425
2.454590	1.840459
2.455078	1.840546
2.455566	1.840470
2.456055	1.840452
2.456543	1.840547
2.457031	1.840588
2.457520	1.840612
2.458008	1.840704
2.458496	1.840859
2.458984	1.840643
2.459473	1.841159
2.459961	1.840901
2.460449	1.840666
2.460937	1.840743
2.461426	1.840571
2.461914	1.840592
2.462402	1.840575
2.462891	1.840669
2.463379	1.840585
2.463867	1.840678
2.464355	1.840646
2.464844	1.840356
2.465332	1.840758
2.465820	1.840408
2.466309	1.840671
2.466797	1.840884
2.467285	1.840754
2.467773	1.841062
2.468262	1.840841
2.468750	1.840927
2.469238	1.840705
2.469727	1.840860
2.470215	1.840777
2.470703	1.840843
2.471191	1.840657
2.471680	1.840864
2.472168	1.840618
2.472656	1.840679
2.473145	1.840699
2.473633	1.840690
2.474121	1.840618
2.474609	1.840496
2.475098	1.840580
2.475586	1.840600
2.476074	1.840488
2.476562	1.840754
2.477051	1.840670
2.477539	1.840798
2.478027	1.840950
2.478516	1.840866
2.479004	1.840748
2.479492	1.840657
2.479980	1.840793
2.480469	1.840826
2.480957	1.840617
2.481445	1.840671
2.481934	1.840729
2.482422	1.840438
2.482910	1.840603
2.483398	1.840572
2.483887	1.840701
2.484375	1.840633
2.484863	1.840730
2.485352	1.840624
2.485840	1.840622
2.486328	1.840522
2.486816	1.840695
2.487305	1.840405
2.487793	1.840890
2.488281	1.840636
2.488770	1.840381
2.489258	1.840688
2.489746	1.840373
2.490234	1.840585
2.490723	1.840572
2.491211	1.840538
2.491699	1.840391
2.492187	1.840734
2.492676	1.840693
2.493164	1.840726
2.493652	1.840414
2.494141	1.840576
2.494629	1.840636
2.495117	1.840472
2.495605	1.840547
2.496094	1.840682
2.496582	1.840505
2.497070	1.840552
2.497559	1.840548
2.498047	1.840654
2.498535	1.840771
2.499023	1.840651
2.499512	1.840740
2.500000	1.840827
2.500488	1.840476
2.500977	1.840643
2.501465	1.840320
2.501953	1.840550
2.502441	1.840643
2.502930	1.840879
2.503418	1.840681
2.503906	1.840894
2.504395	1.840626
2.504883	1.840702
2.505371	1.840886
2.505859	1.840540
2.506348	1.840700
2.506836	1.840664
2.507324	1.840550
2.507812	1.840427
2.508301	1.840646
2.508789	1.840340
2.509277	1.840532
2.509766	1.840484
2.510254	1.840564
2.510742	1.840782
2.511230	1.840385
2.511719	1.840563
2.512207	1.840375
2.512695	1.840436
2.513184	1.840609
2.513672	1.840602
2.514160	1.840694
2.514648	1.840878
2.515137	1.840625
2.515625	1.840678
2.516113	1.840831
2.516602	1.840664
2.517090	1.840972
2.517578	1.840907
2.518066	1.840970
2.518555	1.840869
2.519043	1.840905
2.519531	1.840623
2.520020	1.840784
2.520508	1.840588
2.520996	1.840800
2.521484	1.840762
2.521973	1.840782
2.522461	1.840956
2.522949	1.840796
2.523437	1.840967
2.523926	1.840724
2.524414	1.840741
2.524902	1.840858
2.525391	1.840947
2.525879	1.840758
2.526367	1.840804
2.526855	1.840809
2.527344	1.840675
2.527832	1.840973
2.528320	1.841028
2.528809	1.841043
2.529297	1.841026
2.529785	1.840870
2.530273	1.840926
2.530762	1.840996
2.531250	1.840765
2.531738	1.840979
2.532227	1.840638
2.532715	1.840978
2.533203	1.840724
2.533691	1.841079
2.534180	1.840501
2.534668	1.840887
2.535156	1.840755
2.535645	1.840762
2.536133	1.840876
2.536621	1.840880
2.537109	1.840641
2.537598	1.840984
2.538086	1.841084
2.538574	1.840819
2.539062	1.841286
2.539551	1.840913
2.540039	1.840858
2.540527	1.840746
2.541016	1.840593
2.541504	1.840520
2.541992	1.840780
2.542480	1.840629
2.542969	1.840641
2.543457	1.840593
2.543945	1.840543
2.544434	1.840474
2.544922	1.840517
2.545410	1.840721
2.545898	1.840556
2.546387	1.840747
2.546875	1.840367
2.547363	1.840535
2.547852	1.840577
2.548340	1.840563
2.548828	1.840441
2.549316	1.840498
2.549805	1.840433
2.550293	1.840456
2.550781	1.840422
2.551270	1.840321
2.551758	1.840652
2.552246	1.840619
2.552734	1.840511
2.553223	1.840669
2.553711	1.840644
2.554199	1.840650
2.554687	1.840726
2.555176	1.840621
2.555664	1.840529
2.556152	1.840695
2.556641	1.840664
2.557129	1.840847
2.557617	1.840774
2.558105	1.840841
2.558594	1.840837
2.559082	1.840970
2.559570	1.840985
2.560059	1.840905
2.560547	1.841022
2.561035	1.840910
2.561523	1.841225
2.562012	1.841035
2.562500	1.841275
2.562988	1.841063
2.563477	1.841240
2.563965	1.841045
2.564453	1.841193
2.564941	1.841328
2.565430	1.841190
2.565918	1.841081
2.566406	1.841482
2.566895	1.841197
2.567383	1.841012
2.567871	1.841234
2.568359	1.840973
2.568848	1.841232
2.569336	1.841217
2.569824	1.841181
2.570312	1.841108
2.570801	1.841303
2.571289	1.841278
2.571777	1.841102
2.572266	1.841086
2.572754	1.840967
2.573242	1.841424
2.573730	1.840960
2.574219	1.841026
2.574707	1.841227
2.575195	1.841040
2.575684	1.841039
2.576172	1.841030
2.576660	1.841017
2.577148	1.841194
2.577637	1.840934
2.578125	1.841252
2.578613	1.841073
2.579102	1.840832
2.579590	1.841033
2.580078	1.840809
2.580566	1.841168
2.581055	1.841048
2.581543	1.840946
2.582031	1.841317
2.582520	1.840917
2.583008	1.841010
2.583496	1.840856
2.583984	1.840883
2.584473	1.840837
2.584961	1.840978
2.585449	1.840899
2.585937	1.840837
2.586426	1.841023
2.586914	1.840856
2.587402	1.840865
2.587891	1.840805
2.588379	1.840735
2.588867	1.840739
2.589355	1.840666
2.589844	1.840844
2.590332	1.840976
2.590820	1.840616
2.591309	1.840710
2.591797	1.840572
2.592285	1.840596
2.592773	1.840699
2.593262	1.840753
2.593750	1.840395
2.594238	1.840641
2.594727	1.840913
2.595215	1.840763
2.595703	1.840944
2.596191	1.840754
2.596680	1.840887
2.597168	1.840839
2.597656	1.841023
2.598145	1.840751
2.598633	1.840801
2.599121	1.840597
2.599609	1.840729
2.600098	1.840661
2.600586	1.840668
2.601074	1.840796
2.601562	1.840518
2.602051	1.840683
2.602539	1.840617
2.603027	1.840549
2.603516	1.840636
2.604004	1.840644
2.604492	1.840469
2.604980	1.840509
2.605469	1.840506
2.605957	1.840623
2.606445	1.840653
2.606934	1.840679
2.607422	1.840429
2.607910	1.840801
2.608398	1.840356
2.608887	1.840719
2.609375	1.840857
2.609863	1.840630
2.610352	1.840693
2.610840	1.840577
2.611328	1.840642
2.611816	1.840422
2.612305	1.840355
2.612793	1.840316
2.613281	1.840340
2.613770	1.840214
2.614258	1.840428
2.614746	1.840159
2.615234	1.840319
2.615723	1.840395
2.616211	1.840171
2.616699	1.840349
2.617187	1.840450
2.617676	1.840313
2.618164	1.840254
2.618652	1.840308
2.619141	1.840335
2.619629	1.840179
2.620117	1.840084
2.620605	1.840116
2.621094	1.839716
2.621582	1.840005
2.622070	1.839864
2.622559	1.839820
2.623047	1.839802
2.623535	1.839818
2.624023	1.839700
2.624512	1.839830
2.625000	1.839797
2.625488	1.840018
2.625977	1.839964
2.626465	1.839760
2.626953	1.839828
2.627441	1.839763
2.627930	1.839867
2.628418	1.839890
2.628906	1.839939
2.629395	1.840110
2.629883	1.839933
2.630371	1.840007
2.630859	1.839855
2.631348	1.839860
2.631836	1.839881
2.632324	1.839597
2.632812	1.839912
2.633301	1.839988
2.633789	1.839947
2.634277	1.839733
2.634766	1.840205
2.635254	1.839917
2.635742	1.840303
2.636230	1.840039
2.636719	1.839858
2.637207	1.839980
2.637695	1.840051
2.638184	1.840292
2.638672	1.840065
2.639160	1.840323
2.639648	1.840282
2.640137	1.840301
2.640625	1.840318
2.641113	1.840380
2.641602	1.840314
2.642090	1.840205
2.642578	1.840334
2.643066	1.840557
2.643555	1.840279
2.644043	1.840314
2.644531	1.840243
2.645020	1.840225
2.645508	1.840288
2.645996	1.840433
2.646484	1.840199
2.646973	1.840092
2.647461	1.840089
2.647949	1.840272
2.648437	1.840194
2.648926	1.840099
2.649414	1.840039
2.649902	1.840293
2.650391	1.840074
2.650879	1.840073
2.651367	1.840320
2.651855	1.840160
2.652344	1.840231
2.652832	1.840151
2.653320	1.840361
2.653809	1.840334
2.654297	1.840174
2.654785	1.840457
2.655273	1.840467
2.655762	1.840510
2.656250	1.840654
2.656738	1.840624
2.657227	1.840541
2.657715	1.840577
2.658203	1.840618
2.658691	1.840582
2.659180	1.840658
2.659668	1.840664
2.660156	1.840646
2.660645	1.840555
2.661133	1.840793
2.661621	1.840675
2.662109	1.840591
2.662598	1.840571
2.663086	1.840555
2.663574	1.840850
2.664062	1.840963
2.664551	1.840602
2.665039	1.840718
2.665527	1.840776
2.666016	1.840660
2.666504	1.840723
2.666992	1.840886
2.667480	1.841033
2.667969	1.840997
2.668457	1.840882
2.668945	1.840751
2.669434	1.840962
2.669922	1.840949
2.670410	1.841244
2.670898	1.840837
2.671387	1.840798
2.671875	1.840818
2.672363	1.840752
2.672852	1.840881
2.673340	1.840984
2.673828	1.840826
2.674316	1.840859
2.674805	1.840640
2.675293	1.840884
2.675781	1.840818
2.676270	1.840866
2.676758	1.840949
2.677246	1.840893
2.677734	1.841009
2.678223	1.841120
2.678711	1.840793
2.679199	1.841141
2.679687	1.840772
2.680176	1.840889
2.680664	1.840846
2.681152	1.841031
2.681641	1.841115
2.682129	1.840843
2.682617	1.841096
2.683105	1.840622
2.683594	1.840904
2.684082	1.840693
2.684570	1.840771
2.685059	1.840750
2.685547	1.840869
2.686035	1.840808
2.686523	1.840965
2.687012	1.840942
2.687500	1.840864
2.687988	1.840987
2.688477	1.840882
2.688965	1.840967
2.689453	1.840943
2.689941	1.840809
2.690430	1.841269
2.690918	1.840947
2.691406	1.841023
2.691895	1.840970
2.692383	1.841022
2.692871	1.840989
2.693359	1.840688
2.693848	1.840713
2.694336	1.840821
2.694824	1.840758
2.695312	1.840626
2.695801	1.840956
2.696289	1.840787
2.696777	1.841029
2.697266	1.840970
2.697754	1.840914
2.698242	1.841070
2.698730	1.841053
2.699219	1.841134
2.699707	1.840980
2.700195	1.841169
2.700684	1.841183
2.701172	1.841006
2.701660	1.841122
2.702148	1.840932
2.702637	1.841031
2.703125	1.840983
2.703613	1.840920
2.704102	1.841068
2.704590	1.841036
2.705078	1.841103
2.705566	1.840995
2.706055	1.841123
2.706543	1.841206
2.707031	1.841037
2.707520	1.841188
2.708008	1.841178
2.708496	1.841174
2.708984	1.841072
2.709473	1.841179
2.709961	1.841374
2.710449	1.841098
2.710937	1.841236
2.711426	1.840847
2.711914	1.841201
2.712402	1.840787
2.712891	1.841202
2.713379	1.840991
2.713867	1.841024
2.714355	1.841021
2.714844	1.841098
2.715332	1.841002
2.715820	1.840959
2.716309	1.841111
2.716797	1.841007
2.717285	1.841115
2.717773	1.840621
2.718262	1.840868
2.718750	1.840600
2.719238	1.840753
2.719727	1.840756
2.720215	1.840668
2.720703	1.840783
2.721191	1.840634
2.721680	1.840529
2.722168	1.840562
2.722656	1.840674
2.723145	1.840383
2.723633	1.840355
2.724121	1.840560
2.724609	1.840633
2.725098	1.840427
2.725586	1.840326
2.726074	1.840425
2.726562	1.840469
2.727051	1.840515
2.727539	1.840475
2.728027	1.840230
2.728516	1.840582
2.729004	1.840243
2.729492	1.840431
2.729980	1.840457
2.730469	1.840409
2.730957	1.840278
2.731445	1.840228
2.731934	1.840461
2.732422	1.840214
2.732910	1.840312
2.733398	1.840659
2.733887	1.840464
2.734375	1.840370
2.734863	1.840638
2.735352	1.840364
2.735840	1.840664
2.736328	1.840328
2.736816	1.840473
2.737305	1.840824
2.737793	1.840719
2.738281	1.840760
2.738770	1.840579
2.739258	1.840728
2.739746	1.840601
2.740234	1.840282
2.740723	1.840683
2.741211	1.840577
2.741699	1.840590
2.742187	1.840701
2.742676	1.841012
2.743164	1.840839
2.743652	1.841146
2.744141	1.840935
2.744629	1.841037
2.745117	1.840928
2.745605	1.841053
2.746094	1.840881
2.746582	1.840910
2.747070	1.840807
2.747559	1.840870
2.748047	1.840863
2.748535	1.841006
2.749023	1.841077
2.749512	1.840768
2.750000	1.841129
2.750488	1.840823
2.750977	1.840913
2.751465	1.840835
2.751953	1.840830
2.752441	1.840920
2.752930	1.840934
2.753418	1.840977
2.753906	1.840961
2.754395	1.840999
2.754883	1.840955
2.755371	1.841066
2.755859	1.840990
2.756348	1.840912
2.756836	1.841130
2.757324	1.841091
2.757812	1.841055
2.758301	1.841010
2.758789	1.840954
2.759277	1.840911
2.759766	1.840963
2.760254	1.840942
2.760742	1.841053
2.761230	1.840683
2.761719	1.840965
2.762207	1.840991
2.762695	1.840845
2.763184	1.841037
2.763672	1.840740
2.764160	1.841048
2.764648	1.841084
2.765137	1.840841
2.765625	1.841188
2.766113	1.840685
2.766602	1.840739
2.767090	1.841010
2.767578	1.840976
2.768066	1.841095
2.768555	1.840774
2.769043	1.841049
2.769531	1.841053
2.770020	1.840755
2.770508	1.841127
2.770996	1.840894
2.771484	1.840906
2.771973	1.840985
2.772461	1.840928
2.772949	1.841322
2.773437	1.841073
2.773926	1.841005
2.774414	1.840934
2.774902	1.841027
2.775391	1.840903
2.775879	1.841189
2.776367	1.840943
2.776855	1.840962
2.777344	1.841091
2.777832	1.841066
2.778320	1.840927
2.778809	1.840957
2.779297	1.840908
2.779785	1.841008
2.780273	1.841269
2.780762	1.840620
2.781250	1.840754
2.781738	1.840499
2.782227	1.840841
2.782715	1.840776
2.783203	1.840722
2.783691	1.840535
2.784180	1.840720
2.784668	1.840778
2.785156	1.840821
2.785645	1.840807
2.786133	1.840879
2.786621	1.841002
2.787109	1.840823
2.787598	1.840770
2.788086	1.840884
2.788574	1.840727
2.789062	1.840575
2.789551	1.840763
2.790039	1.840942
2.790527	1.840911
2.791016	1.840827
2.791504	1.840848
2.791992	1.840504
2.792480	1.840601
2.792969	1.840635
2.793457	1.840774
2.793945	1.840452
2.794434	1.840965
2.794922	1.840862
2.795410	1.840749
2.795898	1.840754
2.796387	1.840486
2.796875	1.840576
2.797363	1.840528
2.797852	1.840906
2.798340	1.840658
2.798828	1.840693
2.799316	1.840974
2.799805	1.840763
2.800293	1.840826
2.800781	1.840592
2.801270	1.840730
2.801758	1.840758
2.802246	1.840678
2.802734	1.840937
2.803223	1.840845
2.803711	1.840894
2.804199	1.840855
2.804687	1.840727
2.805176	1.840861
2.805664	1.840901
2.806152	1.840766
2.806641	1.841070
2.807129	1.840642
2.807617	1.840756
2.808105	1.840995
2.808594	1.840909
2.809082	1.840930
2.809570	1.840834
2.810059	1.840787
2.810547	1.840874
2.811035	1.840954
2.811523	1.840612
2.812012	1.840716
2.812500	1.840816
2.812988	1.840835
2.813477	1.840697
2.813965	1.840772
2.814453	1.841055
2.814941	1.840849
2.815430	1.840723
2.815918	1.841032
2.816406	1.840987
2.816895	1.840826
2.817383	1.841049
2.817871	1.840843
2.818359	1.840904
2.818848	1.840710
2.819336	1.840752
2.819824	1.840771
2.820312	1.840602
2.820801	1.840984
2.821289	1.840835
2.821777	1.840881
2.822266	1.841017
2.822754	1.840707
2.823242	1.840812
2.823730	1.840896
2.824219	1.840949
2.824707	1.840610
2.825195	1.841034
2.825684	1.840941
2.826172	1.841038
2.826660	1.840912
2.827148	1.840959
2.827637	1.841079
2.828125	1.841295
2.828613	1.841017
2.829102	1.840942
2.829590	1.841067
2.830078	1.841108
2.830566	1.841064
2.831055	1.841108
2.831543	1.841128
2.832031	1.840852
2.832520	1.841226
2.833008	1.841015
2.833496	1.841293
2.833984	1.841196
2.834473	1.841361
2.834961	1.841264
2.835449	1.841477
2.835937	1.841353
2.836426	1.841372
2.836914	1.841438
2.837402	1.841097
2.837891	1.841485
2.838379	1.841207
2.838867	1.841310
2.839355	1.841092
2.839844	1.841114
2.840332	1.841311
2.840820	1.841102
2.841309	1.841131
2.841797	1.841008
2.842285	1.841050
2.842773	1.841183
2.843262	1.841259
2.843750	1.841083
2.844238	1.840948
2.844727	1.841322
2.845215	1.841153
2.845703	1.841330
2.846191	1.841300
2.846680	1.841237
2.847168	1.841256
2.847656	1.841317
2.848145	1.841095
2.848633	1.841289
2.849121	1.840984
2.849609	1.841184
2.850098	1.841006
2.850586	1.841099
2.851074	1.840796
2.851562	1.840812
2.852051	1.840856
2.852539	1.840657
2.853027	1.840561
2.853516	1.840732
2.854004	1.840738
2.854492	1.840760
2.854980	1.840780
2.855469	1.840544
2.855957	1.840698
2.856445	1.840583
2.856934	1.840688
2.857422	1.840463
2.857910	1.840691
2.858398	1.840528
2.858887	1.840459
2.859375	1.840445
2.859863	1.840689
2.860352	1.840355
2.860840	1.840472
2.861328	1.840380
2.861816	1.840327
2.862305	1.840550
2.862793	1.840394
2.863281	1.840387
2.863770	1.840427
2.864258	1.840606
2.864746	1.840548
2.865234	1.840354
2.865723	1.840306
2.866211	1.840560
2.866699	1.840273
2.867187	1.840308
2.867676	1.840376
2.868164	1.840382
2.868652	1.840385
2.869141	1.840235
2.869629	1.840573
2.870117	1.840396
2.870605	1.840533
2.871094	1.840635
2.871582	1.840616
2.872070	1.840336
2.872559	1.840490
2.873047	1.840406
2.873535	1.840520
2.874023	1.840407
2.874512	1.840335
2.875000	1.840322
2.875488	1.840517
2.875977	1.840768
2.876465	1.840361
2.876953	1.840509
2.877441	1.840484
2.877930	1.840499
2.878418	1.840629
2.878906	1.840472
2.879395	1.840457
2.879883	1.840521
2.880371	1.840531
2.880859	1.840802
2.881348	1.840425
2.881836	1.840536
2.882324	1.840791
2.882812	1.840829
2.883301	1.840774
2.883789	1.840547
2.884277	1.840475
2.884766	1.840556
2.885254	1.840312
2.885742	1.840664
2.886230	1.840471
2.886719	1.840387
2.887207	1.840395
2.887695	1.840556
2.888184	1.840517
2.888672	1.840546
2.889160	1.840522
2.889648	1.840467
2.890137	1.840384
2.890625	1.840280
2.891113	1.840636
2.891602	1.840297
2.892090	1.840536
2.892578	1.840289
2.893066	1.840498
2.893555	1.840447
2.894043	1.840450
2.894531	1.840563
2.895020	1.840627
2.895508	1.840666
2.895996	1.840469
2.896484	1.840405
2.896973	1.840657
2.897461	1.840515
2.897949	1.840261
2.898437	1.840633
2.898926	1.840594
2.899414	1.840627
2.899902	1.840553
2.900391	1.840456
2.900879	1.840589
2.901367	1.840120
2.901855	1.840451
2.902344	1.840283
2.902832	1.840327
2.903320	1.840595
2.903809	1.840418
2.904297	1.840710
2.904785	1.840468
2.905273	1.840553
2.905762	1.840461
2.906250	1.840693
2.906738	1.840572
2.907227	1.840464
2.907715	1.840676
2.908203	1.840677
2.908691	1.840564
2.909180	1.840636
2.909668	1.840461
2.910156	1.840672
2.910645	1.840205
2.911133	1.840479
2.911621	1.840532
2.912109	1.840508
2.912598	1.840102
2.913086	1.840636
2.913574	1.840791
2.914062	1.840782
2.914551	1.840808
2.915039	1.840600
2.915527	1.840588
2.916016	1.840633
2.916504	1.840858
2.916992	1.840596
2.917480	1.840639
2.917969	1.840585
2.918457	1.840847
2.918945	1.840751
2.919434	1.840726
2.919922	1.840649
2.920410	1.840796
2.920898	1.840991
2.921387	1.840638
2.921875	1.840824
2.922363	1.840525
2.922852	1.840823
2.923340	1.840765
2.923828	1.840710
2.924316	1.840547
2.924805	1.840715
2.925293	1.840988
2.925781	1.840677
2.926270	1.840999
2.926758	1.840784
2.927246	1.840953
2.927734	1.840799
2.928223	1.840931
2.928711	1.840769
2.929199	1.840646
2.929687	1.840930
2.930176	1.840917
2.930664	1.840866
2.931152	1.840849
2.931641	1.840627
2.932129	1.840812
2.932617	1.840595
2.933105	1.840830
2.933594	1.840535
2.934082	1.840666
2.934570	1.840699
2.935059	1.840462
2.935547	1.840473
2.936035	1.840406
2.936523	1.840486
2.937012	1.840403
2.937500	1.840654
2.937988	1.840322
2.938477	1.840544
2.938965	1.840285
2.939453	1.840486
2.939941	1.840479
2.940430	1.840535
2.940918	1.840306
2.941406	1.840265
2.941895	1.840226
2.942383	1.840571
2.942871	1.840409
2.943359	1.840473
2.943848	1.840488
2.944336	1.840519
2.944824	1.840561
2.945312	1.840436
2.945801	1.840509
2.946289	1.840342
2.946777	1.840226
2.947266	1.840401
2.947754	1.840329
2.948242	1.840118
2.948730	1.840499
2.949219	1.840560
2.949707	1.840616
2.950195	1.840467
2.950684	1.840465
2.951172	1.840607
2.951660	1.840188
2.952148	1.840279
2.952637	1.840082
2.953125	1.840170
2.953613	1.840029
2.954102	1.840309
2.954590	1.840097
2.955078	1.840257
2.955566	1.840298
2.956055	1.840091
2.956543	1.840112
2.957031	1.840110
2.957520	1.840253
2.958008	1.840301
2.958496	1.840068
2.958984	1.840512
2.959473	1.840393
2.959961	1.840348
2.960449	1.840290
2.960937	1.840104
2.961426	1.840131
2.961914	1.840148
2.962402	1.840210
2.962891	1.840149
2.963379	1.840145
2.963867	1.840164
2.964355	1.840206
2.964844	1.840179
2.965332	1.840293
2.965820	1.840292
2.966309	1.840271
2.966797	1.840264
2.967285	1.840032
2.967773	1.840307
2.968262	1.840159
2.968750	1.840102
2.969238	1.840218
2.969727	1.840279
2.970215	1.840317
2.970703	1.840225
2.971191	1.840187
2.971680	1.840163
2.972168	1.840207
2.972656	1.840530
2.973145	1.840450
2.973633	1.840357
2.974121	1.840387
2.974609	1.840502
2.975098	1.840262
2.975586	1.840408
2.976074	1.840264
2.976562	1.840482
2.977051	1.840329
2.977539	1.840437
2.978027	1.840184
2.978516	1.840423
2.979004	1.840309
2.979492	1.840159
2.979980	1.840156
2.980469	1.840215
2.980957	1.840347
2.981445	1.840043
2.981934	1.840334
2.982422	1.840117
2.982910	1.840541
2.983398	1.840329
2.983887	1.840502
2.984375	1.840221
2.984863	1.840560
2.985352	1.840378
2.985840	1.840318
2.986328	1.840309
2.986816	1.840201
2.987305	1.840525
2.987793	1.840278
2.988281	1.840472
2.988770	1.840162
2.989258	1.840592
2.989746	1.840331
2.990234	1.840332
2.990723	1.840170
2.991211	1.840054
2.991699	1.840191
2.992187	1.840268
2.992676	1.840099
2.993164	1.840041
2.993652	1.840335
2.994141	1.840028
2.994629	1.840055
2.995117	1.840252
2.995605	1.840317
2.996094	1.840110
2.996582	1.840195
2.997070	1.840195
2.997559	1.840110
2.998047	1.840483
2.998535	1.840502
2.999023	1.840486
2.999512	1.840561
3.000000	1.840456
3.000488	1.840524
3.000977	1.840017
3.001465	1.840186
3.001953	1.840170
3.002441	1.840269
3.002930	1.840284
3.003418	1.840339
3.003906	1.840308
3.004395	1.840552
3.004883	1.840205
3.005371	1.840444
3.005859	1.840464
3.006348	1.840100
3.006836	1.840416
3.007324	1.840367
3.007812	1.840517
3.008301	1.840331
3.008789	1.840602
3.009277	1.840268
3.009766	1.840709
3.010254	1.840234
3.010742	1.840595
3.011230	1.840430
3.011719	1.840745
3.012207	1.840355
3.012695	1.840635
3.013184	1.840846
3.013672	1.840596
3.014160	1.841086
3.014648	1.840562
3.015137	1.840582
3.015625	1.840740
3.016113	1.840942
3.016602	1.840604
3.017090	1.840749
3.017578	1.840437
3.018066	1.840730
3.018555	1.840702
3.019043	1.840707
3.019531	1.840846
3.020020	1.840657
3.020508	1.840816
3.020996	1.840708
3.021484	1.840584
3.021973	1.840475
3.022461	1.840638
3.022949	1.840503
3.023437	1.840683
3.023926	1.840336
3.024414	1.840513
3.024902	1.840733
3.025391	1.840442
3.025879	1.840708
3.026367	1.840538
3.026855	1.840516
3.027344	1.840625
3.027832	1.840403
3.028320	1.840554
3.028809	1.840431
3.029297	1.840539
3.029785	1.840433
3.030273	1.840646
3.030762	1.840779
3.031250	1.840470
3.031738	1.840563
3.032227	1.840515
3.032715	1.840566
3.033203	1.840536
3.033691	1.840396
3.034180	1.840287
3.034668	1.840454
3.035156	1.840397
3.035645	1.840262
3.036133	1.840325
3.036621	1.840199
3.037109	1.840389
3.037598	1.840301
3.038086	1.840412
3.038574	1.840516
3.039062	1.840417
3.039551	1.840595
3.040039	1.840701
3.040527	1.840683
3.041016	1.840585
3.041504	1.840759
3.041992	1.840572
3.042480	1.840448
3.042969	1.840326
3.043457	1.840403
3.043945	1.840475
3.044434	1.840343
3.044922	1.840486
3.045410	1.840489
3.045898	1.840247
3.046387	1.840355
3.046875	1.840287
3.047363	1.840425
3.047852	1.840074
3.048340	1.840466
3.048828	1.840538
3.049316	1.840464
3.049805	1.840535
3.050293	1.840443
3.050781	1.840423
3.051270	1.840401
3.051758	1.840498
3.052246	1.840270
3.052734	1.840417
3.053223	1.840256
3.053711	1.840464
3.054199	1.840299
3.054687	1.840560
3.055176	1.840549
3.055664	1.840415
3.056152	1.840812
3.056641	1.840403
3.057129	1.840453
3.057617	1.840483
3.058105	1.840458
3.058594	1.840582
3.059082	1.840477
3.059570	1.840732
3.060059	1.840649
3.060547	1.840273
3.061035	1.840461
3.061523	1.840463
3.062012	1.840510
3.062500	1.840430
3.062988	1.840502
3.063477	1.840358
3.063965	1.840417
3.064453	1.840508
3.064941	1.840306
3.065430	1.840359
3.065918	1.840370
3.066406	1.840427
3.066895	1.840232
3.067383	1.840367
3.067871	1.840214
3.068359	1.840590
3.068848	1.840208
3.069336	1.840240
3.069824	1.840235
3.070312	1.840376
3.070801	1.839993
3.071289	1.840209
3.071777	1.840077
3.072266	1.840246
3.072754	1.840479
3.073242	1.840153
3.073730	1.840224
3.074219	1.839989
3.074707	1.840241
3.075195	1.840127
3.075684	1.840190
3.076172	1.839896
3.076660	1.840085
3.077148	1.840073
3.077637	1.840223
3.078125	1.840132
3.078613	1.839961
3.079102	1.840140
3.079590	1.839863
3.080078	1.839767
3.080566	1.839972
3.081055	1.839891
3.081543	1.839885
3.082031	1.839800
3.082520	1.839885
3.083008	1.839983
3.083496	1.839551
3.083984	1.839883
3.084473	1.839619
3.084961	1.840004
3.085449	1.840030
3.085937	1.839988
3.086426	1.840211
3.086914	1.839995
3.087402	1.840307
3.087891	1.840210
3.088379	1.840273
3.088867	1.840120
3.089355	1.840032
3.089844	1.840157
3.090332	1.840106
3.090820	1.839952
3.091309	1.840086
3.091797	1.840141
3.092285	1.839870
3.092773	1.840118
3.093262	1.840035
3.093750	1.840110
3.094238	1.839877
3.094727	1.840181
3.095215	1.839946
3.095703	1.840121
3.096191	1.839977
3.096680	1.840171
3.097168	1.840226
3.097656	1.840217
3.098145	1.840009
3.098633	1.840328
3.099121	1.840335
3.099609	1.840255
3.100098	1.839981
3.100586	1.840463
3.101074	1.840531
3.101562	1.840442
3.102051	1.840509
3.102539	1.840586
3.103027	1.840517
3.103516	1.840424
3.104004	1.840537
3.104492	1.840391
3.104980	1.840560
3.105469	1.840376
3.105957	1.840584
3.106445	1.840477
3.106934	1.840483
3.107422	1.840480
3.107910	1.840538
3.108398	1.840530
3.108887	1.840497
3.109375	1.840645
3.109863	1.840444
3.110352	1.840607
3.110840	1.840938
3.111328	1.840603
3.111816	1.841231
3.112305	1.840876
3.112793	1.840871
3.113281	1.840894
3.113770	1.840926
3.114258	1.840869
3.114746	1.840757
3.115234	1.840890
3.115723	1.840666
3.116211	1.841004
3.116699	1.840846
3.117187	1.840829
3.117676	1.840733
3.118164	1.841128
3.118652	1.840985
3.119141	1.841051
3.119629	1.841018
3.120117	1.841004
3.120605	1.841059
3.121094	1.840833
3.121582	1.840826
3.122070	1.840947
3.122559	1.841030
3.123047	1.840935
3.123535	1.841029
3.124023	1.841079
3.124512	1.840981
3.125000	1.840948
3.125488	1.841020
3.125977	1.840895
3.126465	1.841194
3.126953	1.840751
3.127441	1.840994
3.127930	1.840856
3.128418	1.840960
3.128906	1.840764
3.129395	1.841002
3.129883	1.840756
3.130371	1.840925
3.130859	1.840953
3.131348	1.841034
3.131836	1.840726
3.132324	1.840810
3.132812	1.840743
3.133301	1.840978
3.133789	1.840933
3.134277	1.841003
3.134766	1.841244
3.135254	1.841020
3.135742	1.840816
3.136230	1.841029
3.136719	1.840875
3.137207	1.840891
3.137695	1.841053
3.138184	1.841043
3.138672	1.840957
3.139160	1.840904
3.139648	1.840938
3.140137	1.840724
3.140625	1.840928
3.141113	1.841050
3.141602	1.840935
3.142090	1.841001
3.142578	1.840972
3.143066	1.841331
3.143555	1.840904
3.144043	1.841009
3.144531	1.840995
3.145020	1.841180
3.145508	1.841189
3.145996	1.841197
3.146484	1.841263
3.146973	1.841122
3.147461	1.841042
3.147949	1.841048
3.148437	1.841292
3.148926	1.840922
3.149414	1.840842
3.149902	1.841004
3.150391	1.840998
3.150879	1.840960
3.151367	1.840859
3.151855	1.840869
3.152344	1.840930
3.152832	1.840942
3.153320	1.840812
3.153809	1.840996
3.154297	1.840875
3.154785	1.840985
3.155273	1.840726
3.155762	1.840966
3.156250	1.840997
3.156738	1.840897
3.157227	1.840791
3.157715	1.841044
3.158203	1.840636
3.158691	1.840892
3.159180	1.840947
3.159668	1.840888
3.160156	1.840752
3.160645	1.840836
3.161133	1.840835
3.161621	1.840478
3.162109	1.840731
3.162598	1.840910
3.163086	1.840707
3.163574	1.840455
3.164062	1.840652
3.164551	1.840425
3.165039	1.840537
3.165527	1.840600
3.166016	1.840841
3.166504	1.840607
3.166992	1.840660
3.167480	1.840543
3.167969	1.840559
3.168457	1.840797
3.168945	1.840401
3.169434	1.840766
3.169922	1.840225
3.170410	1.840332
3.170898	1.840323
3.171387	1.840302
3.171875	1.840208
3.172363	1.840249
3.172852	1.840296
3.173340	1.840444
3.173828	1.840260
3.174316	1.840322
3.174805	1.840169
3.175293	1.840232
3.175781	1.840336
3.176270	1.840202
3.176758	1.840282
3.177246	1.840157
3.177734	1.840444
3.178223	1.840223
3.178711	1.840309
3.179199	1.840240
3.179687	1.840223
3.180176	1.840486
3.180664	1.840459
3.181152	1.840541
3.181641	1.840497
3.182129	1.840555
3.182617	1.840525
3.183105	1.840465
3.183594	1.840529
3.184082	1.840531
3.184570	1.840542
3.185059	1.840406
3.185547	1.840760
3.186035	1.840528
3.186523	1.840408
3.187012	1.840453
3.187500	1.840492
3.187988	1.840423
3.188477	1.840535
3.188965	1.840523
3.189453	1.840433
3.189941	1.840585
3.190430	1.840629
3.190918	1.840655
3.191406	1.840586
3.191895	1.840760
3.192383	1.840581
3.192871	1.840788
3.193359	1.840649
3.193848	1.840710
3.194336	1.840947
3.194824	1.840645
3.195312	1.840678
3.195801	1.840945
3.196289	1.840679
3.196777	1.840528
3.197266	1.840702
3.197754	1.840777
3.198242	1.840635
3.198730	1.840553
3.199219	1.840508
3.199707	1.840409
3.200195	1.840541
3.200684	1.840606
3.201172	1.840475
3.201660	1.840491
3.202148	1.840645
3.202637	1.840554
3.203125	1.840874
3.203613	1.840726
3.204102	1.840683
3.204590	1.840714
3.205078	1.840894
3.205566	1.840453
3.206055	1.840629
3.206543	1.840519
3.207031	1.840631
3.207520	1.840544
3.208008	1.840581
3.208496	1.840624
3.208984	1.840552
3.209473	1.840337
3.209961	1.840602
3.210449	1.840337
3.210937	1.840617
3.211426	1.840528
3.211914	1.840592
3.212402	1.840459
3.212891	1.840541
3.213379	1.840502
3.213867	1.840840
3.214355	1.840634
3.214844	1.840589
3.215332	1.840787
3.215820	1.840373
3.216309	1.840611
3.216797	1.840697
3.217285	1.840596
3.217773	1.840544
3.218262	1.840785
3.218750	1.840956
3.219238	1.840419
3.219727	1.840395
3.220215	1.840596
3.220703	1.840300
3.221191	1.840456
3.221680	1.840448
3.222168	1.840689
3.222656	1.840659
3.223145	1.840818
3.223633	1.840594
3.224121	1.840607
3.224609	1.840883
3.225098	1.840827
3.225586	1.840785
3.226074	1.841002
3.226562	1.840722
3.227051	1.840835
3.227539	1.840656
3.228027	1.840761
3.228516	1.840921
3.229004	1.840903
3.229492	1.840843
3.229980	1.840998
3.230469	1.840919
3.230957	1.841056
3.231445	1.840913
3.231934	1.840899
3.232422	1.840874
3.232910	1.840718
3.233398	1.840925
3.233887	1.841059
3.234375	1.840927
3.234863	1.841222
3.235352	1.841079
3.235840	1.841050
3.236328	1.841057
3.236816	1.841084
3.237305	1.841245
3.237793	1.841061
3.238281	1.841186
3.238770	1.841386
3.239258	1.841206
3.239746	1.841374
3.240234	1.841271
3.240723	1.841170
3.241211	1.841242
3.241699	1.841093
3.242187	1.841329
3.242676	1.841201
3.243164	1.840810
3.243652	1.841165
3.244141	1.840796
3.244629	1.840938
3.245117	1.841082
3.245605	1.841134
3.246094	1.841045
3.246582	1.841169
3.247070	1.841160
3.247559	1.840923
3.248047	1.841133
3.248535	1.841131
3.249023	1.841064
3.249512	1.841017
3.250000	1.841095
3.250488	1.841029
3.250977	1.840990
3.251465	1.841093
3.251953	1.841174
3.252441	1.840924
3.252930	1.841251
3.253418	1.841056
3.253906	1.841053
3.254395	1.841100
3.254883	1.840826
3.255371	1.841038
3.255859	1.840832
3.256348	1.840920
3.256836	1.841120
3.257324	1.840784
3.257812	1.840848
3.258301	1.840879
3.258789	1.840865
3.259277	1.841036
3.259766	1.840687
3.260254	1.840921
3.260742	1.841083
3.261230	1.840811
3.261719	1.840788
3.262207	1.840625
3.262695	1.840863
3.263184	1.840798
3.263672	1.840634
3.264160	1.840574
3.264648	1.840574
3.265137	1.840626
3.265625	1.840502
3.266113	1.840729
3.266602	1.840433
3.267090	1.840441
3.267578	1.840246
3.268066	1.840344
3.268555	1.840505
3.269043	1.840435
3.269531	1.840259
3.270020	1.840246
3.270508	1.840636
3.270996	1.840458
3.271484	1.840282
3.271973	1.840376
3.272461	1.840399
3.272949	1.840392
3.273437	1.840785
3.273926	1.840473
3.274414	1.840284
3.274902	1.840355
3.275391	1.840563
3.275879	1.840380
3.276367	1.840199
3.276855	1.840449
3.277344	1.840362
3.277832	1.840506
3.278320	1.840600
3.278809	1.840326
3.279297	1.840381
3.279785	1.840187
3.280273	1.840558
3.280762	1.840627
3.281250	1.840318
3.281738	1.840658
3.282227	1.840552
3.282715	1.840655
3.283203	1.840341
3.283691	1.840328
3.284180	1.840810
3.284668	1.840707
3.285156	1.840754
3.285645	1.840705
3.286133	1.840619
3.286621	1.840628
3.287109	1.840677
3.287598	1.840626
3.288086	1.840621
3.288574	1.840494
3.289062	1.840494
3.289551	1.840503
3.290039	1.840641
3.290527	1.840675
3.291016	1.840452
3.291504	1.840582
3.291992	1.840570
3.292480	1.840610
3.292969	1.840679
3.293457	1.840292
3.293945	1.840529
3.294434	1.840597
3.294922	1.840694
3.295410	1.840459
3.295898	1.840593
3.296387	1.840594
3.296875	1.840444
3.297363	1.840302
3.297852	1.840497
3.298340	1.840571
3.298828	1.840445
3.299316	1.840603
3.299805	1.840550
3.300293	1.840321
3.300781	1.840220
3.301270	1.840105
3.301758	1.839991
3.302246	1.839916
3.302734	1.839969
3.303223	1.840102
3.303711	1.840128
3.304199	1.839944
3.304687	1.840004
3.305176	1.839745
3.305664	1.839922
3.306152	1.840011
3.306641	1.840047
3.307129	1.839879
3.307617	1.840035
3.308105	1.840121
3.308594	1.840024
3.309082	1.839977
3.309570	1.839979
3.310059	1.840012
3.310547	1.840203
3.311035	1.839939
3.311523	1.840025
3.312012	1.839899
3.312500	1.839780
3.312988	1.840001
3.313477	1.839999
3.313965	1.840001
3.314453	1.840036
3.314941	1.840164
3.315430	1.840362
3.315918	1.839947
3.316406	1.840187
3.316895	1.840084
3.317383	1.840104
3.317871	1.840205
3.318359	1.840316
3.318848	1.840346
3.319336	1.840259
3.319824	1.840201
3.320312	1.840303
3.320801	1.840241
3.321289	1.840377
3.321777	1.840286
3.322266	1.840541
3.322754	1.840661
3.323242	1.840584
3.323730	1.840532
3.324219	1.840252
3.324707	1.840538
3.325195	1.840582
3.325684	1.840633
3.326172	1.840798
3.326660	1.840736
3.327148	1.840783
3.327637	1.840952
3.328125	1.841050
3.328613	1.840752
3.329102	1.840607
3.329590	1.840960
3.330078	1.840902
3.330566	1.840865
3.331055	1.840872
3.331543	1.840829
3.332031	1.840763
3.332520	1.840741
3.333008	1.840751
3.333496	1.840611
3.333984	1.840678
3.334473	1.840728
3.334961	1.840758
3.335449	1.840772
3.335937	1.840359
3.336426	1.840638
3.336914	1.840454
3.337402	1.840433
3.337891	1.840870
3.338379	1.840774
3.338867	1.840711
3.339355	1.840624
3.339844	1.840841
3.340332	1.840611
3.340820	1.841050
3.341309	1.840505
3.341797	1.840558
3.342285	1.840547
3.342773	1.840619
3.343262	1.840724
3.343750	1.840654
3.344238	1.840575
3.344727	1.840488
3.345215	1.840599
3.345703	1.840490
3.346191	1.840708
3.346680	1.840463
3.347168	1.840615
3.347656	1.840566
3.348145	1.840497
3.348633	1.840450
3.349121	1.840419
3.349609	1.840350
3.350098	1.840401
3.350586	1.840484
3.351074	1.840452
3.351562	1.840394
3.352051	1.840204
3.352539	1.840424
3.353027	1.840463
3.353516	1.840469
3.354004	1.840474
3.354492	1.840409
3.354980	1.840271
3.355469	1.840371
3.355957	1.840362
3.356445	1.840620
3.356934	1.840343
3.357422	1.840285
3.357910	1.840411
3.358398	1.840523
3.358887	1.840509
3.359375	1.840346
3.359863	1.840378
3.360352	1.840345
3.360840	1.840682
3.361328	1.840503
3.361816	1.840400
3.362305	1.840447
3.362793	1.840430
3.363281	1.840526
3.363770	1.840397
3.364258	1.840556
3.364746	1.840506
3.365234	1.840343
3.365723	1.840320
3.366211	1.840538
3.366699	1.840501
3.367187	1.840308
3.367676	1.840440
3.368164	1.840646
3.368652	1.840375
3.369141	1.840386
3.369629	1.840525
3.370117	1.840453
3.370605	1.840779
3.371094	1.840596
3.371582	1.840686
3.372070	1.840782
3.372559	1.840645
3.373047	1.840681
3.373535	1.840461
3.374023	1.840822
3.374512	1.840481
3.375000	1.840525
3.375488	1.840503
3.375977	1.840516
3.376465	1.840345
3.376953	1.840624
3.377441	1.840503
3.377930	1.840522
3.378418	1.840472
3.378906	1.840391
3.379395	1.840297
3.379883	1.840041
3.380371	1.840479
3.380859	1.840171
3.381348	1.840241
3.381836	1.840446
3.382324	1.840427
3.382812	1.840506
3.383301	1.840383
3.383789	1.840223
3.384277	1.840449
3.384766	1.840752
3.385254	1.840473
3.385742	1.840441
3.386230	1.840340
3.386719	1.840453
3.387207	1.840369
3.387695	1.840312
3.388184	1.840382
3.388672	1.840451
3.389160	1.840122
3.389648	1.840361
3.390137	1.840238
3.390625	1.840324
3.391113	1.840713
3.391602	1.840355
3.392090	1.840262
3.392578	1.840425
3.393066	1.840483
3.393555	1.840234
3.394043	1.840213
3.394531	1.840028
3.395020	1.840251
3.395508	1.840260
3.395996	1.840210
3.396484	1.840472
3.396973	1.840143
3.397461	1.840477
3.397949	1.840273
3.398437	1.840450
3.398926	1.840439
3.399414	1.840267
3.399902	1.840621
3.400391	1.840292
3.400879	1.840432
3.401367	1.840439
3.401855	1.840158
3.402344	1.840288
3.402832	1.840132
3.403320	1.840170
3.403809	1.840316
3.404297	1.840262
3.404785	1.840121
3.405273	1.840337
3.405762	1.840417
3.406250	1.840201
3.406738	1.840182
3.407227	1.840246
3.407715	1.840397
3.408203	1.840470
3.408691	1.840332
3.409180	1.840170
3.409668	1.840325
3.410156	1.840591
3.410645	1.840519
3.411133	1.840233
3.411621	1.840476
3.412109	1.840252
3.412598	1.840535
3.413086	1.840491
3.413574	1.840668
3.414062	1.840749
3.414551	1.840829
3.415039	1.840649
3.415527	1.840727
3.416016	1.841120
3.416504	1.840736
3.416992	1.840985
3.417480	1.840740
3.417969	1.840995
3.418457	1.841189
3.418945	1.841076
3.419434	1.841010
3.419922	1.841055
3.420410	1.841100
3.420898	1.841264
3.421387	1.840834
3.421875	1.841183
3.422363	1.841040
3.422852	1.841270
3.423340	1.841277
3.423828	1.840944
3.424316	1.841092
3.424805	1.841053
3.425293	1.841139
3.425781	1.841021
3.426270	1.841053
3.426758	1.840962
3.427246	1.841269
3.427734	1.841094
3.428223	1.841353
3.428711	1.841019
3.429199	1.841088
3.429687	1.841288
3.430176	1.841195
3.430664	1.840960
3.431152	1.841225
3.431641	1.840942
3.432129	1.841349
3.432617	1.841158
3.433105	1.841118
3.433594	1.840962
3.434082	1.840986
3.434570	1.841016
3.435059	1.840997
3.435547	1.840935
3.436035	1.840962
3.436523	1.840869
3.437012	1.840841
3.437500	1.840852
3.437988	1.840884
3.438477	1.840981
3.438965	1.840942
3.439453	1.840563
3.439941	1.840833
3.440430	1.840659
3.440918	1.840663
3.441406	1.840798
3.441895	1.840597
3.442383	1.840973
3.442871	1.840570
3.443359	1.840591
3.443848	1.840653
3.444336	1.840536
3.444824	1.840688
3.445312	1.840570
3.445801	1.840732
3.446289	1.840741
3.446777	1.840694
3.447266	1.840679
3.447754	1.840520
3.448242	1.840582
3.448730	1.840529
3.449219	1.840585
3.449707	1.840692
3.450195	1.840436
3.450684	1.840585
3.451172	1.840412
3.451660	1.840582
3.452148	1.840641
3.452637	1.840525
3.453125	1.840820
3.453613	1.840618
3.454102	1.840525
3.454590	1.840504
3.455078	1.840668
3.455566	1.840643
3.456055	1.840344
3.456543	1.840746
3.457031	1.840696
3.457520	1.840605
3.458008	1.840768
3.458496	1.840937
3.458984	1.840796
3.459473	1.840781
3.459961	1.840702
3.460449	1.840824
3.460937	1.840872
3.461426	1.840722
3.461914	1.840659
3.462402	1.840802
3.462891	1.840813
3.463379	1.840810
3.463867	1.840933
3.464355	1.841016
3.464844	1.841147
3.465332	1.841006
3.465820	1.841177
3.466309	1.841173
3.466797	1.841231
3.467285	1.841041
3.467773	1.841141
3.468262	1.841187
3.468750	1.841092
3.469238	1.841023
3.469727	1.841076
3.470215	1.841065
3.470703	1.840901
3.471191	1.840979
3.471680	1.840993
3.472168	1.840763
3.472656	1.840856
3.473145	1.840772
3.473633	1.840835
3.474121	1.841031
3.474609	1.840772
3.475098	1.840815
3.475586	1.840993
3.476074	1.840946
3.476562	1.840786
3.477051	1.840834
3.477539	1.841020
3.478027	1.841090
3.478516	1.840917
3.479004	1.840906
3.479492	1.840890
3.479980	1.841031
3.480469	1.840823
3.480957	1.840827
3.481445	1.840712
3.481934	1.840542
3.482422	1.840942
3.482910	1.840744
3.483398	1.840766
3.483887	1.840549
3.484375	1.840635
3.484863	1.840578
3.485352	1.840741
3.485840	1.840644
3.486328	1.840554
3.486816	1.840845
3.487305	1.840876
3.487793	1.840802
3.488281	1.841058
3.488770	1.840860
3.489258	1.840826
3.489746	1.840885
3.490234	1.840852
3.490723	1.840630
3.491211	1.840855
3.491699	1.840488
3.492187	1.840768
3.492676	1.840689
3.493164	1.840737
3.493652	1.840533
3.494141	1.840887
3.494629	1.840788
3.495117	1.840923
3.495605	1.840755
3.496094	1.840860
3.496582	1.840797
3.497070	1.840941
3.497559	1.840982
3.498047	1.841055
3.498535	1.841011
3.499023	1.840961
3.499512	1.841070
3.500000	1.840971
3.500488	1.840942
3.500977	1.841062
3.501465	1.841010
3.501953	1.840944
3.502441	1.841153
3.502930	1.840921
3.503418	1.840763
3.503906	1.840831
3.504395	1.840827
3.504883	1.841019
3.505371	1.840605
3.505859	1.840794
3.506348	1.840854
3.506836	1.840738
3.507324	1.840804
3.507812	1.840896
3.508301	1.840994
3.508789	1.841222
3.509277	1.840815
3.509766	1.841061
3.510254	1.840937
3.510742	1.840604
3.511230	1.840822
3.511719	1.840679
3.512207	1.840936
3.512695	1.840809
3.513184	1.840856
3.513672	1.841274
3.514160	1.840635
3.514648	1.840710
3.515137	1.840764
3.515625	1.840897
3.516113	1.840853
3.516602	1.840770
3.517090	1.840804
3.517578	1.840741
3.518066	1.840510
3.518555	1.840773
3.519043	1.840523
3.519531	1.840791
3.520020	1.840705
3.520508	1.840715
3.520996	1.840691
3.521484	1.840650
3.521973	1.840639
3.522461	1.840757
3.522949	1.840644
3.523437	1.840652
3.523926	1.840744
3.524414	1.840491
3.524902	1.840963
3.525391	1.840750
3.525879	1.840647
3.526367	1.840779
3.526855	1.840771
3.527344	1.840613
3.527832	1.840890
3.528320	1.840885
3.528809	1.840680
3.529297	1.840708
3.529785	1.840536
3.530273	1.840664
3.530762	1.840544
3.531250	1.840697
3.531738	1.840729
3.532227	1.840741
3.532715	1.840602
3.533203	1.840683
3.533691	1.840798
3.534180	1.840636
3.534668	1.840996
3.535156	1.840805
3.535645	1.840786
3.536133	1.840582
3.536621	1.840668
3.537109	1.840749
3.537598	1.840830
3.538086	1.840678
3.538574	1.840776
3.539062	1.840611
3.539551	1.840664
3.540039	1.840845
3.540527	1.840603
3.541016	1.840590
3.541504	1.840575
3.541992	1.840636
3.542480	1.840276
3.542969	1.840252
3.543457	1.840680
3.543945	1.840523
3.544434	1.840546
3.544922	1.840644
3.545410	1.840703
3.545898	1.840498
3.546387	1.840660
3.546875	1.840611
3.547363	1.840696
3.547852	1.840599
3.548340	1.840755
3.548828	1.840741
3.549316	1.840790
3.549805	1.840579
3.550293	1.840811
3.550781	1.840763
3.551270	1.840798
3.551758	1.840946
3.552246	1.840694
3.552734	1.840851
3.553223	1.840810
3.553711	1.840948
3.554199	1.840816
3.554687	1.840566
3.555176	1.840878
3.555664	1.841045
3.556152	1.841037
3.556641	1.840940
3.557129	1.841046
3.557617	1.840987
3.558105	1.841201
3.558594	1.841292
3.559082	1.841030
3.559570	1.841294
3.560059	1.841258
3.560547	1.841281
3.561035	1.841360
3.561523	1.841197
3.562012	1.841173
3.562500	1.841319
3.562988	1.841225
3.563477	1.841047
3.563965	1.840971
3.564453	1.841224
3.564941	1.841064
3.565430	1.841208
3.565918	1.841167
3.566406	1.841228
3.566895	1.841159
3.567383	1.841250
3.567871	1.841287
3.568359	1.841195
3.568848	1.841277
3.569336	1.841162
3.569824	1.841410
3.570312	1.841230
3.570801	1.841399
3.571289	1.841207
3.571777	1.841117
3.572266	1.841136
3.572754	1.841220
3.573242	1.841145
3.573730	1.841149
3.574219	1.840838
3.574707	1.841036
3.575195	1.840882
3.575684	1.840823
3.576172	1.840948
3.576660	1.840775
3.577148	1.840881
3.577637	1.840924
3.578125	1.841010
3.578613	1.840943
3.579102	1.840675
3.579590	1.840938
3.580078	1.841091
3.580566	1.841034
3.581055	1.841078
3.581543	1.840785
3.582031	1.840611
3.582520	1.841066
3.583008	1.840650
3.583496	1.840790
3.583984	1.840796
3.584473	1.841098
3.584961	1.841198
3.585449	1.840923
3.585937	1.840935
3.586426	1.840939
3.586914	1.840789
3.587402	1.840850
3.587891	1.841090
3.588379	1.841072
3.588867	1.840929
3.589355	1.840908
3.589844	1.841011
3.590332	1.840893
3.590820	1.841161
3.591309	1.841015
3.591797	1.841305
3.592285	1.841238
3.592773	1.841229
3.593262	1.841291
3.593750	1.841097
3.594238	1.841402
3.594727	1.841125
3.595215	1.841295
3.595703	1.841434
3.596191	1.841248
3.596680	1.841312
3.597168	1.841376
3.597656	1.841417
3.598145	1.841416
3.598633	1.841308
3.599121	1.841530
3.599609	1.841427
3.600098	1.841547
3.600586	1.841389
3.601074	1.841408
3.601562	1.841479
3.602051	1.841392
3.602539	1.841293
3.603027	1.841187
3.603516	1.841396
3.604004	1.841307
3.604492	1.841191
3.604980	1.841366
3.605469	1.841266
3.605957	1.841125
3.606445	1.841457
3.606934	1.841167
3.607422	1.841162
3.607910	1.841162
3.608398	1.841536
3.608887	1.841396
3.609375	1.841327
3.609863	1.841103
3.610352	1.840977
3.610840	1.841158
3.611328	1.841007
3.611816	1.841187
3.612305	1.841048
3.612793	1.841090
3.613281	1.841067
3.613770	1.841134
3.614258	1.840926
3.614746	1.841289
3.615234	1.841037
3.615723	1.841189
3.616211	1.841073
3.616699	1.841120
3.617187	1.840851
3.617676	1.841049
3.618164	1.840932
3.618652	1.840864
3.619141	1.840749
3.619629	1.840732
3.620117	1.840983
3.620605	1.840791
3.621094	1.841167
3.621582	1.840754
3.622070	1.841057
3.622559	1.840976
3.623047	1.840769
3.623535	1.840913
3.624023	1.841028
3.624512	1.840968
3.625000	1.840987
3.625488	1.841181
3.625977	1.840974
3.626465	1.841122
3.626953	1.841200
3.627441	1.841021
3.627930	1.840881
3.628418	1.841291
3.628906	1.841211
3.629395	1.841278
3.629883	1.841144
3.630371	1.841258
3.630859	1.841315
3.631348	1.841552
3.631836	1.841283
3.632324	1.841037
3.632812	1.841110
3.633301	1.841125
3.633789	1.841106
3.634277	1.841319
3.634766	1.840971
3.635254	1.841088
3.635742	1.841158
3.636230	1.840963
3.636719	1.841167
3.637207	1.841117
3.637695	1.841373
3.638184	1.841272
3.638672	1.841325
3.639160	1.841292
3.639648	1.841457
3.640137	1.841634
3.640625	1.841687
3.641113	1.841528
3.641602	1.841532
3.642090	1.841318
3.642578	1.841411
3.643066	1.841079
3.643555	1.841026
3.644043	1.841312
3.644531	1.841300
3.645020	1.841207
3.645508	1.841331
3.645996	1.841248
3.646484	1.840963
3.646973	1.840992
3.647461	1.840954
3.647949	1.841075
3.648437	1.841042
3.648926	1.840997
3.649414	1.840916
3.649902	1.840967
3.650391	1.840702
3.650879	1.840843
3.651367	1.841010
3.651855	1.840859
3.652344	1.840867
3.652832	1.840837
3.653320	1.840920
3.653809	1.840791
3.654297	1.840975
3.654785	1.840837
3.655273	1.840780
3.655762	1.840771
3.656250	1.840726
3.656738	1.840929
3.657227	1.840769
3.657715	1.841027
3.658203	1.841076
3.658691	1.841036
3.659180	1.841045
3.659668	1.841312
3.660156	1.841046
3.660645	1.841134
3.661133	1.840909
3.661621	1.840878
3.662109	1.840904
3.662598	1.840929
3.663086	1.840822
3.663574	1.840897
3.664062	1.840662
3.664551	1.840522
3.665039	1.840852
3.665527	1.840902
3.666016	1.840884
3.666504	1.840812
3.666992	1.840978
3.667480	1.841100
3.667969	1.840921
3.668457	1.840913
3.668945	1.841114
3.669434	1.841007
3.669922	1.841058
3.670410	1.841020
3.670898	1.841180
3.671387	1.840888
3.671875	1.840947
3.672363	1.841234
3.672852	1.841192
3.673340	1.841415
3.673828	1.841025
3.674316	1.840772
3.674805	1.841045
3.675293	1.840747
3.675781	1.840962
3.676270	1.840799
3.676758	1.840968
3.677246	1.841136
3.677734	1.840956
3.678223	1.840912
3.678711	1.840801
3.679199	1.840899
3.679687	1.841211
3.680176	1.840896
3.680664	1.841230
3.681152	1.840943
3.681641	1.840867
3.682129	1.841034
3.682617	1.841065
3.683105	1.840906
3.683594	1.841014
3.684082	1.841196
3.684570	1.841106
3.685059	1.841297
3.685547	1.841172
3.686035	1.841116
3.686523	1.841252
3.687012	1.841264
3.687500	1.841314
3.687988	1.841332
3.688477	1.841236
3.688965	1.841471
3.689453	1.841176
3.689941	1.841153
3.690430	1.841440
3.690918	1.841325
3.691406	1.841489
3.691895	1.841339
3.692383	1.841361
3.692871	1.841371
3.693359	1.841290
3.693848	1.841388
3.694336	1.841263
3.694824	1.841436
3.695312	1.841379
3.695801	1.841331
3.696289	1.841234
3.696777	1.841425
3.697266	1.841395
3.697754	1.841293
3.698242	1.841562
3.698730	1.841566
3.699219	1.841309
3.699707	1.841270
3.700195	1.841439
3.700684	1.841325
3.701172	1.841288
3.701660	1.841498
3.702148	1.841423
3.702637	1.841829
3.703125	1.841549
3.703613	1.841463
3.704102	1.841603
3.704590	1.841255
3.705078	1.841379
3.705566	1.841589
3.706055	1.841464
3.706543	1.841521
3.707031	1.841297
3.707520	1.841391
3.708008	1.841607
3.708496	1.841445
3.708984	1.841245
3.709473	1.841464
3.709961	1.841537
3.710449	1.841228
3.710937	1.841229
3.711426	1.841261
3.711914	1.841203
3.712402	1.841111
3.712891	1.841025
3.713379	1.841240
3.713867	1.841253
3.714355	1.841091
3.714844	1.841125
3.715332	1.841073
3.715820	1.841128
3.716309	1.841285
3.716797	1.841037
3.717285	1.840995
3.717773	1.840956
3.718262	1.841241
3.718750	1.840992
3.719238	1.840777
3.719727	1.841235
3.720215	1.841031
3.720703	1.840911
3.721191	1.841160
3.721680	1.841054
3.722168	1.841000
3.722656	1.840700
3.723145	1.840787
3.723633	1.841017
3.724121	1.840902
3.724609	1.841181
3.725098	1.840754
3.725586	1.840994
3.726074	1.840905
3.726562	1.840982
3.727051	1.840946
3.727539	1.841012
3.728027	1.841245
3.728516	1.841131
3.729004	1.841243
3.729492	1.841101
3.729980	1.841255
3.730469	1.841266
3.730957	1.841386
3.731445	1.841319
3.731934	1.841148
3.732422	1.841337
3.732910	1.841183
3.733398	1.841107
3.733887	1.841365
3.734375	1.841319
3.734863	1.841111
3.735352	1.840929
3.735840	1.840874
3.736328	1.840942
3.736816	1.840851
3.737305	1.841046
3.737793	1.840967
3.738281	1.840963
3.738770	1.841123
3.739258	1.841034
3.739746	1.840995
3.740234	1.840988
3.740723	1.841259
3.741211	1.841098
3.741699	1.841093
3.742187	1.841061
3.742676	1.841176
3.743164	1.841093
3.743652	1.841029
3.744141	1.841045
3.744629	1.841223
3.745117	1.840872
3.745605	1.840877
3.746094	1.840942
3.746582	1.840939
3.747070	1.840863
3.747559	1.840749
3.748047	1.840867
3.748535	1.841011
3.749023	1.840927
3.749512	1.840712
3.750000	1.840865
3.750488	1.841004
3.750977	1.841196
3.751465	1.840930
3.751953	1.840916
3.752441	1.840793
3.752930	1.840693
3.753418	1.840721
3.753906	1.840743
3.754395	1.840811
3.754883	1.840843
3.755371	1.840891
3.755859	1.840972
3.756348	1.840960
3.756836	1.840838
3.757324	1.840840
3.757812	1.840798
3.758301	1.840879
3.758789	1.841029
3.759277	1.841075
3.759766	1.841032
3.760254	1.840941
3.760742	1.840840
3.761230	1.840904
3.761719	1.841093
3.762207	1.840931
3.762695	1.840918
3.763184	1.840885
3.763672	1.840895
3.764160	1.840821
3.764648	1.841210
3.765137	1.840948
3.765625	1.841047
3.766113	1.841025
3.766602	1.841120
3.767090	1.841028
3.767578	1.840966
3.768066	1.840965
3.768555	1.841091
3.769043	1.841153
3.769531	1.841054
3.770020	1.841285
3.770508	1.840992
3.770996	1.841163
3.771484	1.841177
3.771973	1.841055
3.772461	1.841147
3.772949	1.841314
3.773437	1.841335
3.773926	1.841405
3.774414	1.841208
3.774902	1.841079
3.775391	1.841206
3.775879	1.841119
3.776367	1.841233
3.776855	1.841512
3.777344	1.841297
3.777832	1.841114
3.778320	1.841481
3.778809	1.841152
3.779297	1.840938
3.779785	1.841109
3.780273	1.840890
3.780762	1.841129
3.781250	1.840911
3.781738	1.840881
3.782227	1.841137
3.782715	1.840667
3.783203	1.840925
3.783691	1.840836
3.784180	1.840759
3.784668	1.840966
3.785156	1.840892
3.785645	1.841239
3.786133	1.840953
3.786621	1.840881
3.787109	1.841037
3.787598	1.840785
3.788086	1.840987
3.788574	1.840919
3.789062	1.841072
3.789551	1.841016
3.790039	1.840821
3.790527	1.840884
3.791016	1.840730
3.791504	1.841032
3.791992	1.840749
3.792480	1.840812
3.792969	1.841018
3.793457	1.840787
3.793945	1.840785
3.794434	1.840712
3.794922	1.840715
3.795410	1.840747
3.795898	1.840520
3.796387	1.840919
3.796875	1.840815
3.797363	1.840798
3.797852	1.840927
3.798340	1.841048
3.798828	1.840969
3.799316	1.840674
3.799805	1.840937
3.800293	1.840976
3.800781	1.840895
3.801270	1.841054
3.801758	1.841098
3.802246	1.840987
3.802734	1.840669
3.803223	1.840755
3.803711	1.840795
3.804199	1.840910
3.804687	1.840686
3.805176	1.840810
3.805664	1.840946
3.806152	1.840754
3.806641	1.841022
3.807129	1.840868
3.807617	1.840824
3.808105	1.841008
3.808594	1.841070
3.809082	1.841040
3.809570	1.840865
3.810059	1.840940
3.810547	1.841050
3.811035	1.840890
3.811523	1.840745
3.812012	1.841054
3.812500	1.840924
3.812988	1.841045
3.813477	1.840880
3.813965	1.841017
3.814453	1.840891
3.814941	1.840535
3.815430	1.840999
3.815918	1.840832
3.816406	1.840940
3.816895	1.840911
3.817383	1.840972
3.817871	1.840902
3.818359	1.841046
3.818848	1.841043
3.819336	1.841012
3.819824	1.841086
3.820312	1.840938
3.820801	1.841119
3.821289	1.840941
3.821777	1.841024
3.822266	1.841080
3.822754	1.841082
3.823242	1.841147
3.823730	1.840538
3.824219	1.840885
3.824707	1.840907
3.825195	1.840679
3.825684	1.840821
3.826172	1.840792
3.826660	1.840857
3.827148	1.840696
3.827637	1.840675
3.828125	1.840974
3.828613	1.840737
3.829102	1.841003
3.829590	1.840968
3.830078	1.840913
3.830566	1.841125
3.831055	1.840991
3.831543	1.841032
3.832031	1.841017
3.832520	1.840986
3.833008	1.841301
3.833496	1.840940
3.833984	1.841101
3.834473	1.840823
3.834961	1.841004
3.835449	1.841062
3.835937	1.841129
3.836426	1.840909
3.836914	1.840951
3.837402	1.840755
3.837891	1.840967
3.838379	1.841084
3.838867	1.840892
3.839355	1.841131
3.839844	1.840990
3.840332	1.841120
3.840820	1.841043
3.841309	1.840931
3.841797	1.840814
3.842285	1.840637
3.842773	1.841007
3.843262	1.840941
3.843750	1.840917
3.844238	1.840915
3.844727	1.840948
3.845215	1.841147
3.845703	1.840809
3.846191	1.840738
3.846680	1.841059
3.847168	1.840910
3.847656	1.840826
3.848145	1.840862
3.848633	1.840973
3.849121	1.840965
3.849609	1.841244
3.850098	1.840847
3.850586	1.840737
3.851074	1.840751
3.851562	1.840826
3.852051	1.840682
3.852539	1.840802
3.853027	1.840709
3.853516	1.840868
3.854004	1.840721
3.854492	1.840843
3.854980	1.840904
3.855469	1.840724
3.855957	1.841160
3.856445	1.840836
3.856934	1.840697
3.857422	1.840708
3.857910	1.840671
3.858398	1.841062
3.858887	1.840783
3.859375	1.841154
3.859863	1.841052
3.860352	1.840809
3.860840	1.840636
3.861328	1.840741
3.861816	1.840708
3.862305	1.840574
3.862793	1.840693
3.863281	1.840555
3.863770	1.840765
3.864258	1.840608
3.864746	1.840786
3.865234	1.840818
3.865723	1.841028
3.866211	1.841013
3.866699	1.840776
3.867187	1.840926
3.867676	1.840976
3.868164	1.840936
3.868652	1.840963
3.869141	1.840765
3.869629	1.841203
3.870117	1.840909
3.870605	1.840881
3.871094	1.840762
3.871582	1.840448
3.872070	1.840528
3.872559	1.840551
3.873047	1.840730
3.873535	1.840837
3.874023	1.840617
3.874512	1.840805
3.875000	1.840727
3.875488	1.840649
3.875977	1.840747
3.876465	1.840702
3.876953	1.840845
3.877441	1.840624
3.877930	1.841009
3.878418	1.840921
3.878906	1.840796
3.879395	1.840695
3.879883	1.840682
3.880371	1.840553
3.880859	1.840649
3.881348	1.840667
3.881836	1.840703
3.882324	1.840439
3.882812	1.840489
3.883301	1.840805
3.883789	1.840423
3.884277	1.840430
3.884766	1.840630
3.885254	1.840868
3.885742	1.840575
3.886230	1.840637
3.886719	1.840522
3.887207	1.840473
3.887695	1.840498
3.888184	1.840638
3.888672	1.840653
3.889160	1.840493
3.889648	1.840670
3.890137	1.840684
3.890625	1.840452
3.891113	1.840354
3.891602	1.840599
3.892090	1.840516
3.892578	1.840566
3.893066	1.840359
3.893555	1.840319
3.894043	1.840375
3.894531	1.840506
3.895020	1.840474
3.895508	1.840489
3.895996	1.840427
3.896484	1.840614
3.896973	1.840545
3.897461	1.840548
3.897949	1.840586
3.898437	1.840511
3.898926	1.840791
3.899414	1.840436
3.899902	1.840295
3.900391	1.840500
3.900879	1.840287
3.901367	1.840463
3.901855	1.840353
3.902344	1.840513
3.902832	1.840716
3.903320	1.840301
3.903809	1.840463
3.904297	1.840238
3.904785	1.840411
3.905273	1.840534
3.905762	1.840546
3.906250	1.840857
3.906738	1.840735
3.907227	1.840766
3.907715	1.840436
3.908203	1.840933
3.908691	1.840951
3.909180	1.840807
3.909668	1.840826
3.910156	1.840827
3.910645	1.840780
3.911133	1.840999
3.911621	1.840851
3.912109	1.840810
3.912598	1.840864
3.913086	1.841014
3.913574	1.840879
3.914062	1.840758
3.914551	1.840941
3.915039	1.840854
3.915527	1.840854
3.916016	1.840711
3.916504	1.840688
3.916992	1.840672
3.917480	1.840826
3.917969	1.840498
3.918457	1.840716
3.918945	1.840905
3.919434	1.840607
3.919922	1.840828
3.920410	1.840609
3.920898	1.840661
3.921387	1.840572
3.921875	1.840141
3.922363	1.840705
3.922852	1.840660
3.923340	1.840525
3.923828	1.840553
3.924316	1.840427
3.924805	1.840511
3.925293	1.840341
3.925781	1.840496
3.926270	1.840707
3.926758	1.840533
3.927246	1.840591
3.927734	1.840702
3.928223	1.840676
3.928711	1.840705
3.929199	1.840557
3.929687	1.840570
3.930176	1.840528
3.930664	1.840487
3.931152	1.840499
3.931641	1.840273
3.932129	1.840478
3.932617	1.840666
3.933105	1.840362
3.933594	1.840633
3.934082	1.840376
3.934570	1.840208
3.935059	1.840445
3.935547	1.840533
3.936035	1.840309
3.936523	1.840412
3.937012	1.840431
3.937500	1.840470
3.937988	1.840401
3.938477	1.840377
3.938965	1.840432
3.939453	1.840379
3.939941	1.840625
3.940430	1.840483
3.940918	1.840514
3.941406	1.840611
3.941895	1.840769
3.942383	1.840692
3.942871	1.840714
3.943359	1.840889
3.943848	1.840794
3.944336	1.840836
3.944824	1.840695
3.945312	1.840645
3.945801	1.840699
3.946289	1.840779
3.946777	1.840837
3.947266	1.840745
3.947754	1.840658
3.948242	1.840698
3.948730	1.840785
3.949219	1.840666
3.949707	1.840727
3.950195	1.840821
3.950684	1.840765
3.951172	1.840704
3.951660	1.840770
3.952148	1.840816
3.952637	1.840935
3.953125	1.840940
3.953613	1.840907
3.954102	1.840983
3.954590	1.840768
3.955078	1.841070
3.955566	1.840993
3.956055	1.841004
3.956543	1.840972
3.957031	1.841075
3.957520	1.841104
3.958008	1.841179
3.958496	1.841190
3.958984	1.840871
3.959473	1.840822
3.959961	1.841073
3.960449	1.840973
3.960937	1.840935
3.961426	1.840760
3.961914	1.840591
3.962402	1.840798
3.962891	1.840794
3.963379	1.840569
3.963867	1.840909
3.964355	1.840276
3.964844	1.840399
3.965332	1.840611
3.965820	1.840597
3.966309	1.840505
3.966797	1.840590
3.967285	1.840436
3.967773	1.840524
3.968262	1.840511
3.968750	1.840749
3.969238	1.840368
3.969727	1.840647
3.970215	1.840637
3.970703	1.840646
3.971191	1.840322
3.971680	1.840548
3.972168	1.840544
3.972656	1.840837
3.973145	1.840803
3.973633	1.840561
3.974121	1.840549
3.974609	1.840473
3.975098	1.840744
3.975586	1.840491
3.976074	1.840389
3.976562	1.840331
3.977051	1.840380
3.977539	1.840349
3.978027	1.840565
3.978516	1.840477
3.979004	1.840349
3.979492	1.840264
3.979980	1.840337
3.980469	1.840301
3.980957	1.840585
3.981445	1.840304
3.981934	1.840396
3.982422	1.840456
3.982910	1.840359
3.983398	1.840306
3.983887	1.840332
3.984375	1.840304
3.984863	1.840511
3.985352	1.840353
3.985840	1.840411
3.986328	1.840352
3.986816	1.840377
3.987305	1.840501
3.987793	1.840325
3.988281	1.840398
3.988770	1.840513
3.989258	1.840024
3.989746	1.840204
3.990234	1.840182
3.990723	1.840053
3.991211	1.840096
3.991699	1.840217
3.992187	1.840220
3.992676	1.840300
3.993164	1.840302
3.993652	1.840101
3.994141	1.840186
3.994629	1.840148
3.995117	1.840263
3.995605	1.840478
3.996094	1.840289
3.996582	1.840394
3.997070	1.840364
3.997559	1.840322
3.998047	1.840423
3.998535	1.840545
3.999023	1.840627
3.999512	1.840368
4.000000	1.840631
4.000488	1.840807
4.000977	1.840895
4.001465	1.840760
4.001953	1.840733
4.002441	1.840657
4.002930	1.841067
4.003418	1.841028
4.003906	1.840771
4.004395	1.840643
4.004883	1.840592
4.005371	1.840774
4.005859	1.840658
4.006348	1.840724
4.006836	1.840574
4.007324	1.840512
4.007812	1.840586
4.008301	1.840465
4.008789	1.840656
4.009277	1.840726
4.009766	1.840616
4.010254	1.840818
4.010742	1.840622
4.011230	1.840498
4.011719	1.840453
4.012207	1.840433
4.012695	1.840737
4.013184	1.840377
4.013672	1.840722
4.014160	1.840775
4.014648	1.840584
4.015137	1.840801
4.015625	1.840871
4.016113	1.840909
4.016602	1.840441
4.017090	1.840529
4.017578	1.840852
4.018066	1.840708
4.018555	1.840742
4.019043	1.840680
4.019531	1.840621
4.020020	1.840616
4.020508	1.840525
4.020996	1.840519
4.021484	1.840566
4.021973	1.840106
4.022461	1.840437
4.022949	1.840353
4.023437	1.840370
4.023926	1.840611
4.024414	1.840358
4.024902	1.840784
4.025391	1.840555
4.025879	1.840202
4.026367	1.840403
4.026855	1.840506
4.027344	1.840448
4.027832	1.840436
4.028320	1.840539
4.028809	1.840567
4.029297	1.840188
4.029785	1.840322
4.030273	1.840308
4.030762	1.840368
4.031250	1.840345
4.031738	1.840441
4.032227	1.840422
4.032715	1.840433
4.033203	1.840538
4.033691	1.840332
4.034180	1.840466
4.034668	1.840417
4.035156	1.840680
4.035645	1.840615
4.036133	1.840503
4.036621	1.840483
4.037109	1.840784
4.037598	1.840680
4.038086	1.840650
4.038574	1.840588
4.039062	1.840674
4.039551	1.840765
4.040039	1.840786
4.040527	1.840475
4.041016	1.840795
4.041504	1.841030
4.041992	1.840937
4.042480	1.840967
4.042969	1.840831
4.043457	1.840871
4.043945	1.840979
4.044434	1.840944
4.044922	1.841018
4.045410	1.840901
4.045898	1.840955
4.046387	1.840852
4.046875	1.841206
4.047363	1.841068
4.047852	1.840967
4.048340	1.840943
4.048828	1.840926
4.049316	1.840836
4.049805	1.840884
4.050293	1.840830
4.050781	1.841007
4.051270	1.841062
4.051758	1.840772
4.052246	1.841252
4.052734	1.840910
4.053223	1.840828
4.053711	1.840840
4.054199	1.840734
4.054687	1.841136
4.055176	1.840736
4.055664	1.841000
4.056152	1.840893
4.056641	1.840782
4.057129	1.840878
4.057617	1.840812
4.058105	1.840927
4.058594	1.840867
4.059082	1.840790
4.059570	1.840989
4.060059	1.840906
4.060547	1.840827
4.061035	1.840838
4.061523	1.840888
4.062012	1.840867
4.062500	1.841153
4.062988	1.840779
4.063477	1.840828
4.063965	1.840522
4.064453	1.840581
4.064941	1.840586
4.065430	1.840527
4.065918	1.840492
4.066406	1.840423
4.066895	1.840455
4.067383	1.840754
4.067871	1.840627
4.068359	1.840486
4.068848	1.840797
4.069336	1.840449
4.069824	1.840395
4.070312	1.840730
4.070801	1.840604
4.071289	1.840840
4.071777	1.840493
4.072266	1.840707
4.072754	1.840653
4.073242	1.840253
4.073730	1.840631
4.074219	1.840544
4.074707	1.840629
4.075195	1.840412
4.075684	1.840433
4.076172	1.840881
4.076660	1.840284
4.077148	1.840275
4.077637	1.840419
4.078125	1.840139
4.078613	1.840421
4.079102	1.840198
4.079590	1.840469
4.080078	1.840461
4.080566	1.840253
4.081055	1.840207
4.081543	1.840329
4.082031	1.840203
4.082520	1.840474
4.083008	1.840232
4.083496	1.840129
4.083984	1.840200
4.084473	1.840230
4.084961	1.840356
4.085449	1.840267
4.085937	1.840577
4.086426	1.840489
4.086914	1.840390
4.087402	1.840574
4.087891	1.840160
4.088379	1.840209
4.088867	1.840347
4.089355	1.840257
4.089844	1.840383
4.090332	1.840251
4.090820	1.840416
4.091309	1.840341
4.091797	1.840153
4.092285	1.840395
4.092773	1.840233
4.093262	1.840298
4.093750	1.840312
4.094238	1.840361
4.094727	1.840574
4.095215	1.840648
4.095703	1.840427
4.096191	1.840435
4.096680	1.840547
4.097168	1.840520
4.097656	1.840411
4.098145	1.840322
4.098633	1.840574
4.099121	1.840351
4.099609	1.840582
4.100098	1.840685
4.100586	1.840384
4.101074	1.840350
4.101562	1.840264
4.102051	1.840413
4.102539	1.840358
4.103027	1.840345
4.103516	1.840381
4.104004	1.840478
4.104492	1.840461
4.104980	1.840157
4.105469	1.840181
4.105957	1.840538
4.106445	1.840483
4.106934	1.840373
4.107422	1.840409
4.107910	1.840276
4.108398	1.840239
4.108887	1.840198
4.109375	1.840373
4.109863	1.840326
4.110352	1.840473
4.110840	1.840580
4.111328	1.840373
4.111816	1.840408
4.112305	1.840366
4.112793	1.840240
4.113281	1.840541
4.113770	1.840393
4.114258	1.840520
4.114746	1.840426
4.115234	1.840265
4.115723	1.840418
4.116211	1.840284
4.116699	1.840768
4.117187	1.840541
4.117676	1.840625
4.118164	1.840799
4.118652	1.840637
4.119141	1.840741
4.119629	1.840505
4.120117	1.840525
4.120605	1.840884
4.121094	1.840790
4.121582	1.840529
4.122070	1.840603
4.122559	1.840444
4.123047	1.840475
4.123535	1.840635
4.124023	1.840607
4.124512	1.840418
4.125000	1.840420
4.125488	1.840403
4.125977	1.840576
4.126465	1.840525
4.126953	1.840590
4.127441	1.840711
4.127930	1.840722
4.128418	1.840697
4.128906	1.840764
4.129395	1.840774
4.129883	1.840762
4.130371	1.840785
4.130859	1.841084
4.131348	1.840768
4.131836	1.840933
4.132324	1.840625
4.132812	1.840673
4.133301	1.841063
4.133789	1.840899
4.134277	1.840758
4.134766	1.840730
4.135254	1.840796
4.135742	1.840868
4.136230	1.840662
4.136719	1.840819
4.137207	1.840834
4.137695	1.841017
4.138184	1.840876
4.138672	1.841048
4.139160	1.840945
4.139648	1.840788
4.140137	1.841164
4.140625	1.840972
4.141113	1.841115
4.141602	1.841090
4.142090	1.841183
4.142578	1.841301
4.143066	1.841023
4.143555	1.841003
4.144043	1.841147
4.144531	1.841065
4.145020	1.841062
4.145508	1.841269
4.145996	1.841114
4.146484	1.841189
4.146973	1.841105
4.147461	1.841039
4.147949	1.841158
4.148437	1.841093
4.148926	1.841281
4.149414	1.840992
4.149902	1.841205
4.150391	1.841153
4.150879	1.841101
4.151367	1.841121
4.151855	1.841163
4.152344	1.841187
4.152832	1.841402
4.153320	1.841196
4.153809	1.841131
4.154297	1.840937
4.154785	1.840904
4.155273	1.841053
4.155762	1.840901
4.156250	1.840950
4.156738	1.840923
4.157227	1.840663
4.157715	1.840788
4.158203	1.840675
4.158691	1.840735
4.159180	1.840548
4.159668	1.840614
4.160156	1.840400
4.160645	1.840618
4.161133	1.840471
4.161621	1.840537
4.162109	1.840592
4.162598	1.840509
4.163086	1.840660
4.163574	1.840566
4.164062	1.840563
4.164551	1.840456
4.165039	1.840378
4.165527	1.840499
4.166016	1.840474
4.166504	1.840326
4.166992	1.840372
4.167480	1.840384
4.167969	1.840453
4.168457	1.840378
4.168945	1.840324
4.169434	1.840323
4.169922	1.840452
4.170410	1.840170
4.170898	1.840517
4.171387	1.840283
4.171875	1.840122
4.172363	1.840250
4.172852	1.840196
4.173340	1.840185
4.173828	1.840289
4.174316	1.840153
4.174805	1.840357
4.175293	1.839961
4.175781	1.840189
4.176270	1.840231
4.176758	1.840081
4.177246	1.840405
4.177734	1.840362
4.178223	1.840529
4.178711	1.840565
4.179199	1.840212
4.179687	1.840588
4.180176	1.840556
4.180664	1.840613
4.181152	1.840588
4.181641	1.840431
4.182129	1.840405
4.182617	1.840673
4.183105	1.840480
4.183594	1.840766
4.184082	1.840513
4.184570	1.840697
4.185059	1.840906
4.185547	1.840745
4.186035	1.840535
4.186523	1.840682
4.187012	1.840730
4.187500	1.841076
4.187988	1.840923
4.188477	1.840904
4.188965	1.840627
4.189453	1.840662
4.189941	1.840871
4.190430	1.840733
4.190918	1.840590
4.191406	1.840867
4.191895	1.840362
4.192383	1.840530
4.192871	1.840548
4.193359	1.840553
4.193848	1.840577
4.194336	1.840648
4.194824	1.840652
4.195312	1.840498
4.195801	1.840726
4.196289	1.840701
4.196777	1.840519
4.197266	1.840688
4.197754	1.840611
4.198242	1.840776
4.198730	1.840734
4.199219	1.840744
4.199707	1.840827
4.200195	1.840469
4.200684	1.840447
4.201172	1.840532
4.201660	1.840418
4.202148	1.840600
4.202637	1.840329
4.203125	1.840644
4.203613	1.840483
4.204102	1.840411
4.204590	1.840312
4.205078	1.840623
4.205566	1.840440
4.206055	1.840437
4.206543	1.840613
4.207031	1.840351
4.207520	1.840305
4.208008	1.840298
4.208496	1.840514
4.208984	1.840647
4.209473	1.840173
4.209961	1.840293
4.210449	1.840416
4.210937	1.840466
4.211426	1.840452
4.211914	1.840342
4.212402	1.840328
4.212891	1.840455
4.213379	1.840347
4.213867	1.840540
4.214355	1.840292
4.214844	1.840539
4.215332	1.840428
4.215820	1.840461
4.216309	1.840522
4.216797	1.840565
4.217285	1.840444
4.217773	1.840489
4.218262	1.840540
4.218750	1.840486
4.219238	1.840432
4.219727	1.840486
4.220215	1.840493
4.220703	1.840509
4.221191	1.840482
4.221680	1.840308
4.222168	1.840359
4.222656	1.840477
4.223145	1.840543
4.223633	1.840337
4.224121	1.840484
4.224609	1.840604
4.225098	1.840376
4.225586	1.840506
4.226074	1.840297
4.226562	1.840457
4.227051	1.840599
4.227539	1.840415
4.228027	1.840386
4.228516	1.840546
4.229004	1.840503
4.229492	1.840493
4.229980	1.840456
4.230469	1.840856
4.230957	1.840527
4.231445	1.840665
4.231934	1.840741
4.232422	1.840675
4.232910	1.840638
4.233398	1.840329
4.233887	1.840474
4.234375	1.840606
4.234863	1.840621
4.235352	1.840536
4.235840	1.840270
4.236328	1.840363
4.236816	1.840538
4.237305	1.840625
4.237793	1.840636
4.238281	1.840464
4.238770	1.840228
4.239258	1.840143
4.239746	1.840329
4.240234	1.840416
4.240723	1.840636
4.241211	1.840431
4.241699	1.840298
4.242187	1.840384
4.242676	1.840677
4.243164	1.840334
4.243652	1.840385
4.244141	1.840366
4.244629	1.840361
4.245117	1.840364
4.245605	1.840386
4.246094	1.840095
4.246582	1.840302
4.247070	1.840419
4.247559	1.840196
4.248047	1.840021
4.248535	1.840133
4.249023	1.840101
4.249512	1.840093
4.250000	1.839966
4.250488	1.840204
4.250977	1.840220
4.251465	1.840379
4.251953	1.840068
4.252441	1.840171
4.252930	1.840220
4.253418	1.840395
4.253906	1.840305
4.254395	1.840312
4.254883	1.840394
4.255371	1.840308
4.255859	1.840447
4.256348	1.840277
4.256836	1.840386
4.257324	1.840504
4.257812	1.840074
4.258301	1.840394
4.258789	1.840490
4.259277	1.840247
4.259766	1.840580
4.260254	1.840209
4.260742	1.840642
4.261230	1.840400
4.261719	1.839893
4.262207	1.840005
4.262695	1.840102
4.263184	1.840223
4.263672	1.840267
4.264160	1.840247
4.264648	1.840330
4.265137	1.840104
4.265625	1.840264
4.266113	1.840291
4.266602	1.840400
4.267090	1.840480
4.267578	1.840427
4.268066	1.840488
4.268555	1.840609
4.269043	1.840613
4.269531	1.840506
4.270020	1.840578
4.270508	1.840755
4.270996	1.840804
4.271484	1.840544
4.271973	1.840739
4.272461	1.840455
4.272949	1.840716
4.273437	1.840664
4.273926	1.840661
4.274414	1.840461
4.274902	1.840620
4.275391	1.840524
4.275879	1.840512
4.276367	1.840408
4.276855	1.840389
4.277344	1.840388
4.277832	1.840554
4.278320	1.840504
4.278809	1.840394
4.279297	1.840589
4.279785	1.840629
4.280273	1.840566
4.280762	1.840619
4.281250	1.840654
4.281738	1.840388
4.282227	1.840400
4.282715	1.840916
4.283203	1.840503
4.283691	1.840981
4.284180	1.840695
4.284668	1.840730
4.285156	1.840475
4.285645	1.840804
4.286133	1.840573
4.286621	1.840707
4.287109	1.840658
4.287598	1.840834
4.288086	1.840699
4.288574	1.841099
4.289062	1.840879
4.289551	1.840771
4.290039	1.840899
4.290527	1.840862
4.291016	1.840649
4.291504	1.840779
4.291992	1.840960
4.292480	1.840769
4.292969	1.841022
4.293457	1.840686
4.293945	1.840713
4.294434	1.840615
4.294922	1.840649
4.295410	1.840588
4.295898	1.840594
4.296387	1.840522
4.296875	1.840529
4.297363	1.840519
4.297852	1.840584
4.298340	1.840817
4.298828	1.840687
4.299316	1.840704
4.299805	1.840535
4.300293	1.840616
4.300781	1.840692
4.301270	1.840659
4.301758	1.840606
4.302246	1.840490
4.302734	1.840852
4.303223	1.840880
4.303711	1.840586
4.304199	1.840732
4.304687	1.840398
4.305176	1.840452
4.305664	1.840600
4.306152	1.840585
4.306641	1.840512
4.307129	1.840403
4.307617	1.840466
4.308105	1.840750
4.308594	1.840645
4.309082	1.840624
4.309570	1.840683
4.310059	1.840718
4.310547	1.840719
4.311035	1.840970
4.311523	1.840951
4.312012	1.840842
4.312500	1.840742
4.312988	1.840940
4.313477	1.840943
4.313965	1.840907
4.314453	1.840713
4.314941	1.841059
4.315430	1.840706
4.315918	1.840864
4.316406	1.840682
4.316895	1.840939
4.317383	1.840738
4.317871	1.840815
4.318359	1.840793
4.318848	1.840921
4.319336	1.840447
4.319824	1.840572
4.320312	1.840546
4.320801	1.840713
4.321289	1.840455
4.321777	1.840691
4.322266	1.840542
4.322754	1.840667
4.323242	1.840741
4.323730	1.840524
4.324219	1.840444
4.324707	1.840519
4.325195	1.840651
4.325684	1.840636
4.326172	1.840654
4.326660	1.840735
4.327148	1.840639
4.327637	1.840691
4.328125	1.840611
4.328613	1.840741
4.329102	1.840357
4.329590	1.840412
4.330078	1.840707
4.330566	1.840599
4.331055	1.840601
4.331543	1.840467
4.332031	1.840394
4.332520	1.840503
4.333008	1.840315
4.333496	1.840351
4.333984	1.840401
4.334473	1.840630
4.334961	1.840726
4.335449	1.840378
4.335937	1.840521
4.336426	1.840366
4.336914	1.840395
4.337402	1.840694
4.337891	1.840516
4.338379	1.840517
4.338867	1.840560
4.339355	1.840668
4.339844	1.840563
4.340332	1.840474
4.340820	1.840512
4.341309	1.840444
4.341797	1.840511
4.342285	1.840392
4.342773	1.840541
4.343262	1.840087
4.343750	1.840486
4.344238	1.840564
4.344727	1.840671
4.345215	1.840404
4.345703	1.840746
4.346191	1.840578
4.346680	1.840790
4.347168	1.840671
4.347656	1.840719
4.348145	1.840690
4.348633	1.840860
4.349121	1.840832
4.349609	1.840995
4.350098	1.840636
4.350586	1.840642
4.351074	1.840688
4.351562	1.840623
4.352051	1.840612
4.352539	1.840692
4.353027	1.840663
4.353516	1.840711
4.354004	1.840935
4.354492	1.840857
4.354980	1.840652
4.355469	1.840894
4.355957	1.841078
4.356445	1.840986
4.356934	1.841009
4.357422	1.841163
4.357910	1.841275
4.358398	1.841103
4.358887	1.841207
4.359375	1.841125
4.359863	1.841167
4.360352	1.841078
4.360840	1.841100
4.361328	1.841044
4.361816	1.841026
4.362305	1.840949
4.362793	1.840794
4.363281	1.841025
4.363770	1.840902
4.364258	1.840758
4.364746	1.840689
4.365234	1.840809
4.365723	1.840686
4.366211	1.840826
4.366699	1.840754
4.367187	1.840957
4.367676	1.840780
4.368164	1.840948
4.368652	1.840859
4.369141	1.840970
4.369629	1.841165
4.370117	1.840954
4.370605	1.840955
4.371094	1.841042
4.371582	1.840758
4.372070	1.840942
4.372559	1.840718
4.373047	1.841032
4.373535	1.840969
4.374023	1.840726
4.374512	1.840555
4.375000	1.841003
4.375488	1.840790
4.375977	1.840944
4.376465	1.840870
4.376953	1.840807
4.377441	1.840806
4.377930	1.840803
4.378418	1.840603
4.378906	1.840643
4.379395	1.840677
4.379883	1.840714
4.380371	1.840621
4.380859	1.840753
4.381348	1.840783
4.381836	1.840802
4.382324	1.840863
4.382812	1.840796
4.383301	1.840978
4.383789	1.841050
4.384277	1.840707
4.384766	1.840960
4.385254	1.841068
4.385742	1.840820
4.386230	1.840893
4.386719	1.841024
4.387207	1.841104
4.387695	1.840876
4.388184	1.840942
4.388672	1.841018
4.389160	1.841095
4.389648	1.841081
4.390137	1.841191
4.390625	1.841247
4.391113	1.841181
4.391602	1.840844
4.392090	1.840988
4.392578	1.841201
4.393066	1.841065
4.393555	1.840917
4.394043	1.841073
4.394531	1.840985
4.395020	1.840936
4.395508	1.841021
4.395996	1.840931
4.396484	1.840992
4.396973	1.840655
4.397461	1.840883
4.397949	1.840866
4.398437	1.840882
4.398926	1.840955
4.399414	1.840852
4.399902	1.840792
4.400391	1.840773
4.400879	1.840890
4.401367	1.840874
4.401855	1.840769
4.402344	1.840890
4.402832	1.840891
4.403320	1.840828
4.403809	1.840918
4.404297	1.840934
4.404785	1.841021
4.405273	1.841413
4.405762	1.841179
4.406250	1.841017
4.406738	1.841073
4.407227	1.840981
4.407715	1.841017
4.408203	1.840960
4.408691	1.841040
4.409180	1.841123
4.409668	1.840921
4.410156	1.841092
4.410645	1.840994
4.411133	1.840779
4.411621	1.840759
4.412109	1.841085
4.412598	1.840750
4.413086	1.840931
4.413574	1.841215
4.414062	1.841159
4.414551	1.840966
4.415039	1.841010
4.415527	1.841136
4.416016	1.841166
4.416504	1.841309
4.416992	1.841143
4.417480	1.841169
4.417969	1.840962
4.418457	1.841299
4.418945	1.840934
4.419434	1.841107
4.419922	1.841219
4.420410	1.841247
4.420898	1.840906
4.421387	1.841211
4.421875	1.841084
4.422363	1.841028
4.422852	1.841391
4.423340	1.841159
4.423828	1.840974
4.424316	1.841072
4.424805	1.841218
4.425293	1.840946
4.425781	1.840937
4.426270	1.840985
4.426758	1.841146
4.427246	1.840859
4.427734	1.841073
4.428223	1.840961
4.428711	1.840847
4.429199	1.840807
4.429687	1.841060
4.430176	1.840929
4.430664	1.840930
4.431152	1.840954
4.431641	1.840762
4.432129	1.840609
4.432617	1.840664
4.433105	1.840696
4.433594	1.840231
4.434082	1.840447
4.434570	1.840740
4.435059	1.840712
4.435547	1.840498
4.436035	1.840605
4.436523	1.840584
4.437012	1.840685
4.437500	1.840840
4.437988	1.840835
4.438477	1.840774
4.438965	1.840712
4.439453	1.840886
4.439941	1.840819
4.440430	1.840612
4.440918	1.840644
4.441406	1.840743
4.441895	1.840730
4.442383	1.840559
4.442871	1.840400
4.443359	1.840360
4.443848	1.840582
4.444336	1.840446
4.444824	1.840319
4.445312	1.840527
4.445801	1.840460
4.446289	1.840456
4.446777	1.840422
4.447266	1.840651
4.447754	1.840628
4.448242	1.840743
4.448730	1.840594
4.449219	1.840539
4.449707	1.840702
4.450195	1.840844
4.450684	1.840626
4.451172	1.840470
4.451660	1.840381
4.452148	1.840445
4.452637	1.840434
4.453125	1.840703
4.453613	1.840409
4.454102	1.840519
4.454590	1.840314
4.455078	1.840352
4.455566	1.840305
4.456055	1.840454
4.456543	1.840477
4.457031	1.840550
4.457520	1.840425
4.458008	1.840577
4.458496	1.840588
4.458984	1.840616
4.459473	1.840806
4.459961	1.840569
4.460449	1.840723
4.460937	1.840585
4.461426	1.840796
4.461914	1.840659
4.462402	1.840536
4.462891	1.840470
4.463379	1.840622
4.463867	1.840549
4.464355	1.840589
4.464844	1.840578
4.465332	1.840432
4.465820	1.840869
4.466309	1.840481
4.466797	1.840470
4.467285	1.840632
4.467773	1.840558
4.468262	1.840654
4.468750	1.840724
4.469238	1.840744
4.469727	1.840672
4.470215	1.840419
4.470703	1.840539
4.471191	1.840348
4.471680	1.840477
4.472168	1.840270
4.472656	1.840500
4.473145	1.840486
4.473633	1.840523
4.474121	1.840528
4.474609	1.840276
4.475098	1.840462
4.475586	1.840562
4.476074	1.840415
4.476562	1.840615
4.477051	1.840491
4.477539	1.840405
4.478027	1.840497
4.478516	1.840391
4.479004	1.840715
4.479492	1.840292
4.479980	1.840556
4.480469	1.840741
4.480957	1.840647
4.481445	1.840699
4.481934	1.840483
4.482422	1.840762
4.482910	1.840785
4.483398	1.840874
4.483887	1.840774
4.484375	1.840896
4.484863	1.841109
4.485352	1.841180
4.485840	1.841032
4.486328	1.841165
4.486816	1.841144
4.487305	1.841386
4.487793	1.841274
4.488281	1.841482
4.488770	1.841316
4.489258	1.841616
4.489746	1.841453
4.490234	1.841356
4.490723	1.841336
4.491211	1.841468
4.491699	1.841333
4.492187	1.841493
4.492676	1.841479
4.493164	1.841324
4.493652	1.841380
4.494141	1.841526
4.494629	1.841741
4.495117	1.841581
4.495605	1.841569
4.496094	1.841724
4.496582	1.841614
4.497070	1.841623
4.497559	1.841513
4.498047	1.841562
4.498535	1.841435
4.499023	1.841608
4.499512	1.841433
4.500000	1.841467
4.500488	1.841544
4.500977	1.841308
4.501465	1.841544
4.501953	1.841268
4.502441	1.841396
4.502930	1.841272
4.503418	1.841381
4.503906	1.841159
4.504395	1.840963
4.504883	1.841439
4.505371	1.841261
4.505859	1.841294
4.506348	1.841375
4.506836	1.841261
4.507324	1.841121
4.507812	1.841136
4.508301	1.841180
4.508789	1.841402
4.509277	1.841209
4.509766	1.841173
4.510254	1.841131
4.510742	1.841162
4.511230	1.841167
4.511719	1.841137
4.512207	1.840863
4.512695	1.841045
4.513184	1.840905
4.513672	1.841007
4.514160	1.840942
4.514648	1.840786
4.515137	1.840851
4.515625	1.840804
4.516113	1.840796
4.516602	1.840931
4.517090	1.840690
4.517578	1.840923
4.518066	1.840984
4.518555	1.841034
4.519043	1.840879
4.519531	1.841123
4.520020	1.840904
4.520508	1.841007
4.520996	1.840985
4.521484	1.840880
4.521973	1.840784
4.522461	1.840720
4.522949	1.840823
4.523437	1.840951
4.523926	1.840627
4.524414	1.840697
4.524902	1.840525
4.525391	1.840607
4.525879	1.840963
4.526367	1.840885
4.526855	1.840665
4.527344	1.840652
4.527832	1.841098
4.528320	1.840914
4.528809	1.840785
4.529297	1.840668
4.529785	1.840875
4.530273	1.840688
4.530762	1.840338
4.531250	1.840762
4.531738	1.840690
4.532227	1.840461
4.532715	1.840444
4.533203	1.840378
4.533691	1.840348
4.534180	1.840447
4.534668	1.840468
4.535156	1.840661
4.535645	1.840624
4.536133	1.840443
4.536621	1.840544
4.537109	1.840374
4.537598	1.840487
4.538086	1.840704
4.538574	1.840719
4.539062	1.840807
4.539551	1.840751
4.540039	1.840754
4.540527	1.840726
4.541016	1.840689
4.541504	1.840984
4.541992	1.840755
4.542480	1.840856
4.542969	1.840830
4.543457	1.840873
4.543945	1.840830
4.544434	1.840816
4.544922	1.840886
4.545410	1.841024
4.545898	1.840892
4.546387	1.841094
4.546875	1.840879
4.547363	1.840929
4.547852	1.840830
4.548340	1.840899
4.548828	1.841039
4.549316	1.841026
4.549805	1.840970
4.550293	1.840729
4.550781	1.840741
4.551270	1.840625
4.551758	1.840810
4.552246	1.840738
4.552734	1.840899
4.553223	1.840694
4.553711	1.840946
4.554199	1.840890
4.554687	1.840876
4.555176	1.840765
4.555664	1.840769
4.556152	1.840926
4.556641	1.840690
4.557129	1.840839
4.557617	1.840754
4.558105	1.840754
4.558594	1.840873
4.559082	1.840679
4.559570	1.840708
4.560059	1.840741
4.560547	1.840719
4.561035	1.840765
4.561523	1.840821
4.562012	1.840776
4.562500	1.840744
4.562988	1.840787
4.563477	1.840944
4.563965	1.840846
4.564453	1.840810
4.564941	1.840779
4.565430	1.841009
4.565918	1.840835
4.566406	1.840691
4.566895	1.840702
4.567383	1.840746
4.567871	1.840758
4.568359	1.840976
4.568848	1.840780
4.569336	1.840722
4.569824	1.840576
4.570312	1.840818
4.570801	1.840632
4.571289	1.840596
4.571777	1.840446
4.572266	1.840677
4.572754	1.840620
4.573242	1.840813
4.573730	1.840564
4.574219	1.840677
4.574707	1.840936
4.575195	1.840483
4.575684	1.840561
4.576172	1.840655
4.576660	1.840831
4.577148	1.840713
4.577637	1.840851
4.578125	1.840696
4.578613	1.840847
4.579102	1.840842
4.579590	1.840816
4.580078	1.840849
4.580566	1.840769
4.581055	1.840707
4.581543	1.840693
4.582031	1.840704
4.582520	1.840881
4.583008	1.840721
4.583496	1.840937
4.583984	1.840878
4.584473	1.840848
4.584961	1.840880
4.585449	1.841026
4.585937	1.840869
4.586426	1.840864
4.586914	1.840938
4.587402	1.840999
4.587891	1.840888
4.588379	1.840858
4.588867	1.841184
4.589355	1.841072
4.589844	1.840628
4.590332	1.840621
4.590820	1.840981
4.591309	1.840890
4.591797	1.840909
4.592285	1.840945
4.592773	1.840741
4.593262	1.840788
4.593750	1.840713
4.594238	1.840882
4.594727	1.840876
4.595215	1.840783
4.595703	1.840849
4.596191	1.840953
4.596680	1.840898
4.597168	1.841039
4.597656	1.840942
4.598145	1.840979
4.598633	1.840963
4.599121	1.840840
4.599609	1.840873
4.600098	1.840730
4.600586	1.840974
4.601074	1.840871
4.601562	1.840876
4.602051	1.841088
4.602539	1.840696
4.603027	1.840751
4.603516	1.840875
4.604004	1.840573
4.604492	1.840634
4.604980	1.840598
4.605469	1.840957
4.605957	1.840807
4.606445	1.840491
4.606934	1.840780
4.607422	1.840531
4.607910	1.840580
4.608398	1.840741
4.608887	1.841007
4.609375	1.841082
4.609863	1.840955
4.610352	1.840735
4.610840	1.840873
4.611328	1.840906
4.611816	1.840854
4.612305	1.840736
4.612793	1.841158
4.613281	1.840873
4.613770	1.840959
4.614258	1.840699
4.614746	1.840672
4.615234	1.840968
4.615723	1.840700
4.616211	1.840694
4.616699	1.840694
4.617187	1.840744
4.617676	1.840677
4.618164	1.840612
4.618652	1.840771
4.619141	1.840854
4.619629	1.840679
4.620117	1.840965
4.620605	1.840993
4.621094	1.841005
4.621582	1.840767
4.622070	1.840499
4.622559	1.840933
4.623047	1.840916
4.623535	1.840735
4.624023	1.840813
4.624512	1.840926
4.625000	1.841006
4.625488	1.841018
4.625977	1.840927
4.626465	1.840808
4.626953	1.840944
4.627441	1.841028
4.627930	1.841108
4.628418	1.841280
4.628906	1.841067
4.629395	1.841327
4.629883	1.841169
4.630371	1.841194
4.630859	1.840930
4.631348	1.841109
4.631836	1.841149
4.632324	1.840938
4.632812	1.841236
4.633301	1.841034
4.633789	1.840652
4.634277	1.840965
4.634766	1.840915
4.635254	1.841052
4.635742	1.840688
4.636230	1.840955
4.636719	1.841025
4.637207	1.841033
4.637695	1.840823
4.638184	1.840881
4.638672	1.840772
4.639160	1.840999
4.639648	1.840794
4.640137	1.840763
4.640625	1.840832
4.641113	1.840721
4.641602	1.840852
4.642090	1.840996
4.642578	1.840902
4.643066	1.840716
4.643555	1.840881
4.644043	1.840749
4.644531	1.840852
4.645020	1.840849
4.645508	1.840786
4.645996	1.840693
4.646484	1.840763
4.646973	1.840673
4.647461	1.840580
4.647949	1.840478
4.648437	1.840594
4.648926	1.840450
4.649414	1.840411
4.649902	1.840262
4.650391	1.840389
4.650879	1.840165
4.651367	1.840163
4.651855	1.840218
4.652344	1.840411
4.652832	1.840314
4.653320	1.840364
4.653809	1.840613
4.654297	1.840474
4.654785	1.840196
4.655273	1.840379
4.655762	1.840320
4.656250	1.840566
4.656738	1.840326
4.657227	1.840375
4.657715	1.840313
4.658203	1.840483
4.658691	1.840412
4.659180	1.840635
4.659668	1.840409
4.660156	1.840680
4.660645	1.840556
4.661133	1.840556
4.661621	1.840356
4.662109	1.840391
4.662598	1.840453
4.663086	1.840685
4.663574	1.840554
4.664062	1.840524
4.664551	1.840635
4.665039	1.840715
4.665527	1.840440
4.666016	1.840721
4.666504	1.840760
4.666992	1.840707
4.667480	1.840779
4.667969	1.840733
4.668457	1.840876
4.668945	1.840851
4.669434	1.840743
4.669922	1.840971
4.670410	1.840755
4.670898	1.840890
4.671387	1.841089
4.671875	1.840682
4.672363	1.840799
4.672852	1.840744
4.673340	1.840997
4.673828	1.840838
4.674316	1.840732
4.674805	1.841064
4.675293	1.840868
4.675781	1.840747
4.676270	1.840788
4.676758	1.840912
4.677246	1.841003
4.677734	1.840546
4.678223	1.840838
4.678711	1.841136
4.679199	1.840956
4.679687	1.841138
4.680176	1.840913
4.680664	1.841032
4.681152	1.841037
4.681641	1.841040
4.682129	1.840985
4.682617	1.841059
4.683105	1.841165
4.683594	1.841068
4.684082	1.841244
4.684570	1.841195
4.685059	1.840959
4.685547	1.840996
4.686035	1.841131
4.686523	1.841132
4.687012	1.840948
4.687500	1.841217
4.687988	1.841328
4.688477	1.841081
4.688965	1.841089
4.689453	1.841178
4.689941	1.841280
4.690430	1.841065
4.690918	1.841266
4.691406	1.841224
4.691895	1.841167
4.692383	1.841034
4.692871	1.841103
4.693359	1.841038
4.693848	1.841333
4.694336	1.841150
4.694824	1.841115
4.695312	1.841056
4.695801	1.841226
4.696289	1.841166
4.696777	1.841278
4.697266	1.841038
4.697754	1.841261
4.698242	1.841317
4.698730	1.841316
4.699219	1.841246
4.699707	1.841242
4.700195	1.841460
4.700684	1.841680
4.701172	1.841532
4.701660	1.841562
4.702148	1.841294
4.702637	1.841478
4.703125	1.841516
4.703613	1.841386
4.704102	1.841423
4.704590	1.841268
4.705078	1.841302
4.705566	1.841187
4.706055	1.841010
4.706543	1.841283
4.707031	1.841251
4.707520	1.841151
4.708008	1.841168
4.708496	1.841063
4.708984	1.841111
4.709473	1.840884
4.709961	1.841222
4.710449	1.841275
4.710937	1.841221
4.711426	1.841447
4.711914	1.841348
4.712402	1.841231
4.712891	1.841317
4.713379	1.841253
4.713867	1.841231
4.714355	1.841251
4.714844	1.841292
4.715332	1.841554
4.715820	1.841402
4.716309	1.841341
4.716797	1.841325
4.717285	1.841417
4.717773	1.841497
4.718262	1.841424
4.718750	1.841358
4.719238	1.841344
4.719727	1.841303
4.720215	1.841432
4.720703	1.841405
4.721191	1.841521
4.721680	1.841244
4.722168	1.841407
4.722656	1.841606
4.723145	1.841139
4.723633	1.841407
4.724121	1.841230
4.724609	1.841209
4.725098	1.841311
4.725586	1.841450
4.726074	1.841404
4.726562	1.841411
4.727051	1.841366
4.727539	1.841665
4.728027	1.841389
4.728516	1.841422
4.729004	1.841635
4.729492	1.841338
4.729980	1.841601
4.730469	1.841414
4.730957	1.841579
4.731445	1.841438
4.731934	1.841234
4.732422	1.841519
4.732910	1.841338
4.733398	1.841427
4.733887	1.841363
4.734375	1.841451
4.734863	1.841299
4.735352	1.841286
4.735840	1.841416
4.736328	1.841485
4.736816	1.841448
4.737305	1.841503
4.737793	1.841607
4.738281	1.841443
4.738770	1.841538
4.739258	1.841400
4.739746	1.841220
4.740234	1.841202
4.740723	1.841256
4.741211	1.841222
4.741699	1.841099
4.742187	1.841059
4.742676	1.841004
4.743164	1.840907
4.743652	1.841119
4.744141	1.840900
4.744629	1.841071
4.745117	1.841008
4.745605	1.840991
4.746094	1.841065
4.746582	1.840932
4.747070	1.840992
4.747559	1.840882
4.748047	1.841110
4.748535	1.841028
4.749023	1.840920
4.749512	1.841004
4.750000	1.840953
4.750488	1.840870
4.750977	1.840910
4.751465	1.841089
4.751953	1.840837
4.752441	1.841189
4.752930	1.840967
4.753418	1.840998
4.753906	1.840738
4.754395	1.840890
4.754883	1.840918
4.755371	1.840967
4.755859	1.840908
4.756348	1.841029
4.756836	1.840933
4.757324	1.840957
4.757812	1.841231
4.758301	1.841098
4.758789	1.841464
4.759277	1.841164
4.759766	1.841007
4.760254	1.841407
4.760742	1.841419
4.761230	1.841368
4.761719	1.841215
4.762207	1.841244
4.762695	1.841387
4.763184	1.841154
4.763672	1.841187
4.764160	1.841233
4.764648	1.841108
4.765137	1.841397
4.765625	1.841469
4.766113	1.841252
4.766602	1.841274
4.767090	1.841114
4.767578	1.841415
4.768066	1.841319
4.768555	1.841236
4.769043	1.841383
4.769531	1.841411
4.770020	1.841311
4.770508	1.841311
4.770996	1.841229
4.771484	1.841357
4.771973	1.841067
4.772461	1.841030
4.772949	1.841174
4.773437	1.841422
4.773926	1.841150
4.774414	1.841291
4.774902	1.841037
4.775391	1.841175
4.775879	1.841014
4.776367	1.840912
4.776855	1.840871
4.777344	1.840879
4.777832	1.840937
4.778320	1.840916
4.778809	1.841045
4.779297	1.841023
4.779785	1.840910
4.780273	1.841031
4.780762	1.840881
4.781250	1.840953
4.781738	1.840895
4.782227	1.840806
4.782715	1.840938
4.783203	1.840609
4.783691	1.840701
4.784180	1.840549
4.784668	1.840748
4.785156	1.840597
4.785645	1.840585
4.786133	1.840637
4.786621	1.840605
4.787109	1.840508
4.787598	1.840547
4.788086	1.840318
4.788574	1.840450
4.789062	1.840401
4.789551	1.840524
4.790039	1.840397
4.790527	1.840525
4.791016	1.840371
4.791504	1.840281
4.791992	1.840341
4.792480	1.840281
4.792969	1.840300
4.793457	1.840316
4.793945	1.840281
4.794434	1.840666
4.794922	1.840311
4.795410	1.840401
4.795898	1.840427
4.796387	1.840460
4.796875	1.840472
4.797363	1.840325
4.797852	1.840351
4.798340	1.840653
4.798828	1.840449
4.799316	1.840485
4.799805	1.840727
4.800293	1.840814
4.800781	1.840767
4.801270	1.840679
4.801758	1.840657
4.802246	1.840451
4.802734	1.840519
4.803223	1.840528
4.803711	1.840480
4.804199	1.840713
4.804687	1.840607
4.805176	1.840810
4.805664	1.840749
4.806152	1.840602
4.806641	1.840822
4.807129	1.840395
4.807617	1.840697
4.808105	1.840578
4.808594	1.840693
4.809082	1.840563
4.809570	1.840700
4.810059	1.840640
4.810547	1.840974
4.811035	1.840809
4.811523	1.840679
4.812012	1.840697
4.812500	1.840647
4.812988	1.840881
4.813477	1.840746
4.813965	1.840642
4.814453	1.841000
4.814941	1.840798
4.815430	1.840854
4.815918	1.840760
4.816406	1.840750
4.816895	1.840874
4.817383	1.840814
4.817871	1.840806
4.818359	1.840849
4.818848	1.840993
4.819336	1.840627
4.819824	1.840699
4.820312	1.840909
4.820801	1.840864
4.821289	1.840733
4.821777	1.840673
4.822266	1.840644
4.822754	1.840580
4.823242	1.840711
4.823730	1.840656
4.824219	1.840536
4.824707	1.840501
4.825195	1.840737
4.825684	1.840614
4.826172	1.840783
4.826660	1.840630
4.827148	1.840759
4.827637	1.840679
4.828125	1.840647
4.828613	1.840650
4.829102	1.840703
4.829590	1.840674
4.830078	1.840727
4.830566	1.840649
4.831055	1.840787
4.831543	1.840685
4.832031	1.840569
4.832520	1.840657
4.833008	1.840658
4.833496	1.840574
4.833984	1.840711
4.834473	1.840416
4.834961	1.840690
4.835449	1.840491
4.835937	1.840619
4.836426	1.840539
4.836914	1.840670
4.837402	1.840932
4.837891	1.840553
4.838379	1.840642
4.838867	1.840656
4.839355	1.840742
4.839844	1.840809
4.840332	1.840334
4.840820	1.840816
4.841309	1.840862
4.841797	1.840738
4.842285	1.840755
4.842773	1.840641
4.843262	1.840639
4.843750	1.840399
4.844238	1.840929
4.844727	1.840535
4.845215	1.840628
4.845703	1.840832
4.846191	1.840652
4.846680	1.840624
4.847168	1.840567
4.847656	1.840475
4.848145	1.840645
4.848633	1.841126
4.849121	1.840730
4.849609	1.840677
4.850098	1.840820
4.850586	1.840901
4.851074	1.840855
4.851562	1.840784
4.852051	1.840796
4.852539	1.840832
4.853027	1.840710
4.853516	1.840932
4.854004	1.840728
4.854492	1.840957
4.854980	1.840926
4.855469	1.840978
4.855957	1.840894
4.856445	1.841029
4.856934	1.840997
4.857422	1.840890
4.857910	1.840979
4.858398	1.840972
4.858887	1.841103
4.859375	1.840677
4.859863	1.841040
4.860352	1.840935
4.860840	1.841108
4.861328	1.841286
4.861816	1.840847
4.862305	1.840871
4.862793	1.840846
4.863281	1.840933
4.863770	1.841038
4.864258	1.840702
4.864746	1.841245
4.865234	1.841049
4.865723	1.841175
4.866211	1.841065
4.866699	1.840856
4.867187	1.841091
4.867676	1.840923
4.868164	1.840937
4.868652	1.841055
4.869141	1.841211
4.869629	1.840945
4.870117	1.841178
4.870605	1.840996
4.871094	1.840956
4.871582	1.840963
4.872070	1.840962
4.872559	1.840959
4.873047	1.840872
4.873535	1.840858
4.874023	1.841194
4.874512	1.840944
4.875000	1.840959
4.875488	1.840832
4.875977	1.841002
4.876465	1.840908
4.876953	1.841087
4.877441	1.840783
4.877930	1.840757
4.878418	1.840639
4.878906	1.840875
4.879395	1.840686
4.879883	1.840738
4.880371	1.840588
4.880859	1.840685
4.881348	1.840747
4.881836	1.840648
4.882324	1.840421

