LabVIEW Measurement	
Writer_Version	2
Reader_Version	2
Separator	Tab
Decimal_Separator	.
Multi_Headings	Yes
X_Columns	One
Time_Pref	Absolute
Operator	W-Tunnel
Date	2024/05/15
Time	15:43:47.0002361812495430154
***End_of_Header***	
	
Channels	1	
Samples	10000	
Date	2024/05/15	
Time	15:45:32.7488945812496731586	
Y_Unit_Label	Volts	
X_Dimension	Time	
X0	0.0000000000000000E+0	
Delta_X	0.000488	
***End_of_Header***		
X_Value	Voltage	Comment
0.000000	1.479033
0.000488	1.478866
0.000977	1.479215
0.001465	1.479085
0.001953	1.479168
0.002441	1.479121
0.002930	1.479182
0.003418	1.478837
0.003906	1.479321
0.004395	1.479199
0.004883	1.479288
0.005371	1.479004
0.005859	1.479163
0.006348	1.479182
0.006836	1.479090
0.007324	1.479193
0.007812	1.479019
0.008301	1.478971
0.008789	1.479133
0.009277	1.479048
0.009766	1.478859
0.010254	1.478820
0.010742	1.479017
0.011230	1.479090
0.011719	1.478945
0.012207	1.478978
0.012695	1.478847
0.013184	1.478986
0.013672	1.478830
0.014160	1.478954
0.014648	1.478614
0.015137	1.479050
0.015625	1.479138
0.016113	1.479096
0.016602	1.479148
0.017090	1.479216
0.017578	1.479208
0.018066	1.479362
0.018555	1.479436
0.019043	1.479118
0.019531	1.479310
0.020020	1.479263
0.020508	1.479307
0.020996	1.479241
0.021484	1.479387
0.021973	1.479405
0.022461	1.479261
0.022949	1.479233
0.023437	1.479238
0.023926	1.479127
0.024414	1.479065
0.024902	1.479129
0.025391	1.479023
0.025879	1.479193
0.026367	1.478919
0.026855	1.479055
0.027344	1.479040
0.027832	1.478957
0.028320	1.479204
0.028809	1.479028
0.029297	1.479163
0.029785	1.479066
0.030273	1.479189
0.030762	1.479132
0.031250	1.479239
0.031738	1.479213
0.032227	1.479335
0.032715	1.479282
0.033203	1.479412
0.033691	1.479532
0.034180	1.479285
0.034668	1.479434
0.035156	1.479468
0.035645	1.479529
0.036133	1.479389
0.036621	1.479382
0.037109	1.479437
0.037598	1.479303
0.038086	1.479210
0.038574	1.479172
0.039062	1.479283
0.039551	1.479195
0.040039	1.479025
0.040527	1.479164
0.041016	1.478853
0.041504	1.479232
0.041992	1.479176
0.042480	1.479076
0.042969	1.479193
0.043457	1.479090
0.043945	1.479205
0.044434	1.478930
0.044922	1.478834
0.045410	1.479341
0.045898	1.479132
0.046387	1.479143
0.046875	1.479388
0.047363	1.479343
0.047852	1.479610
0.048340	1.479546
0.048828	1.479413
0.049316	1.479312
0.049805	1.479453
0.050293	1.479440
0.050781	1.479422
0.051270	1.479547
0.051758	1.479305
0.052246	1.479514
0.052734	1.479233
0.053223	1.479308
0.053711	1.479085
0.054199	1.479335
0.054687	1.478833
0.055176	1.479214
0.055664	1.479144
0.056152	1.479276
0.056641	1.479608
0.057129	1.478996
0.057617	1.479213
0.058105	1.479442
0.058594	1.479140
0.059082	1.479169
0.059570	1.479044
0.060059	1.479498
0.060547	1.479404
0.061035	1.479104
0.061523	1.479543
0.062012	1.479249
0.062500	1.479497
0.062988	1.479525
0.063477	1.479601
0.063965	1.479623
0.064453	1.479420
0.064941	1.479463
0.065430	1.479432
0.065918	1.479672
0.066406	1.479532
0.066895	1.479428
0.067383	1.479841
0.067871	1.479443
0.068359	1.479548
0.068848	1.479620
0.069336	1.479627
0.069824	1.479556
0.070312	1.479176
0.070801	1.479338
0.071289	1.479368
0.071777	1.479211
0.072266	1.479222
0.072754	1.479551
0.073242	1.479304
0.073730	1.479407
0.074219	1.479379
0.074707	1.479387
0.075195	1.479291
0.075684	1.479370
0.076172	1.479446
0.076660	1.479420
0.077148	1.479511
0.077637	1.479550
0.078125	1.479669
0.078613	1.479771
0.079102	1.479882
0.079590	1.479750
0.080078	1.479740
0.080566	1.479607
0.081055	1.479883
0.081543	1.479720
0.082031	1.479749
0.082520	1.479641
0.083008	1.480061
0.083496	1.479539
0.083984	1.479479
0.084473	1.479376
0.084961	1.479053
0.085449	1.479422
0.085937	1.479368
0.086426	1.479567
0.086914	1.479540
0.087402	1.479492
0.087891	1.479386
0.088379	1.479348
0.088867	1.479409
0.089355	1.479448
0.089844	1.479582
0.090332	1.479462
0.090820	1.479550
0.091309	1.479644
0.091797	1.479723
0.092285	1.479659
0.092773	1.479764
0.093262	1.479675
0.093750	1.479642
0.094238	1.479853
0.094727	1.479658
0.095215	1.479794
0.095703	1.479867
0.096191	1.479720
0.096680	1.479791
0.097168	1.479824
0.097656	1.479687
0.098145	1.479841
0.098633	1.479651
0.099121	1.479920
0.099609	1.479799
0.100098	1.479808
0.100586	1.479580
0.101074	1.479600
0.101562	1.479677
0.102051	1.479509
0.102539	1.479603
0.103027	1.479717
0.103516	1.479579
0.104004	1.479445
0.104492	1.479649
0.104980	1.479640
0.105469	1.479730
0.105957	1.479406
0.106445	1.479759
0.106934	1.479772
0.107422	1.479325
0.107910	1.479675
0.108398	1.479597
0.108887	1.479847
0.109375	1.479768
0.109863	1.479860
0.110352	1.479980
0.110840	1.479882
0.111328	1.479900
0.111816	1.479750
0.112305	1.479826
0.112793	1.479717
0.113281	1.479821
0.113770	1.479542
0.114258	1.479702
0.114746	1.479570
0.115234	1.479473
0.115723	1.479612
0.116211	1.479644
0.116699	1.479413
0.117187	1.479528
0.117676	1.479608
0.118164	1.479571
0.118652	1.479553
0.119141	1.479395
0.119629	1.479437
0.120117	1.479410
0.120605	1.479365
0.121094	1.479702
0.121582	1.479825
0.122070	1.479386
0.122559	1.479717
0.123047	1.479838
0.123535	1.479448
0.124023	1.479623
0.124512	1.479599
0.125000	1.479832
0.125488	1.479811
0.125977	1.479661
0.126465	1.479770
0.126953	1.479709
0.127441	1.479946
0.127930	1.479864
0.128418	1.479889
0.128906	1.479665
0.129395	1.479947
0.129883	1.479636
0.130371	1.479486
0.130859	1.479407
0.131348	1.479521
0.131836	1.479540
0.132324	1.479539
0.132812	1.479635
0.133301	1.479566
0.133789	1.479755
0.134277	1.479671
0.134766	1.479186
0.135254	1.479754
0.135742	1.479204
0.136230	1.479424
0.136719	1.479405
0.137207	1.479629
0.137695	1.479624
0.138184	1.479680
0.138672	1.479637
0.139160	1.479650
0.139648	1.479636
0.140137	1.479504
0.140625	1.479647
0.141113	1.479755
0.141602	1.479562
0.142090	1.479595
0.142578	1.479668
0.143066	1.479719
0.143555	1.479642
0.144043	1.479773
0.144531	1.479554
0.145020	1.479678
0.145508	1.479160
0.145996	1.479257
0.146484	1.479587
0.146973	1.479507
0.147461	1.479232
0.147949	1.479401
0.148437	1.479534
0.148926	1.479113
0.149414	1.479412
0.149902	1.479280
0.150391	1.479238
0.150879	1.479351
0.151367	1.479476
0.151855	1.479370
0.152344	1.479443
0.152832	1.479079
0.153320	1.479426
0.153809	1.479194
0.154297	1.479283
0.154785	1.479674
0.155273	1.479431
0.155762	1.479640
0.156250	1.479435
0.156738	1.479474
0.157227	1.479612
0.157715	1.479658
0.158203	1.479586
0.158691	1.479618
0.159180	1.479414
0.159668	1.479645
0.160156	1.479446
0.160645	1.479615
0.161133	1.479487
0.161621	1.479412
0.162109	1.479482
0.162598	1.479240
0.163086	1.479058
0.163574	1.479288
0.164062	1.479110
0.164551	1.479273
0.165039	1.479110
0.165527	1.479388
0.166016	1.479373
0.166504	1.479128
0.166992	1.479270
0.167480	1.479198
0.167969	1.479223
0.168457	1.479476
0.168945	1.479445
0.169434	1.479313
0.169922	1.479662
0.170410	1.479619
0.170898	1.479650
0.171387	1.479560
0.171875	1.479620
0.172363	1.479705
0.172852	1.479688
0.173340	1.479582
0.173828	1.479437
0.174316	1.479374
0.174805	1.479193
0.175293	1.479224
0.175781	1.479117
0.176270	1.479321
0.176758	1.479130
0.177246	1.479265
0.177734	1.479201
0.178223	1.479119
0.178711	1.479042
0.179199	1.479196
0.179687	1.479055
0.180176	1.479124
0.180664	1.479151
0.181152	1.478887
0.181641	1.479197
0.182129	1.479111
0.182617	1.479164
0.183105	1.479186
0.183594	1.479152
0.184082	1.479010
0.184570	1.479392
0.185059	1.479315
0.185547	1.479176
0.186035	1.479259
0.186523	1.479161
0.187012	1.479398
0.187500	1.479001
0.187988	1.479194
0.188477	1.479290
0.188965	1.479312
0.189453	1.479122
0.189941	1.479299
0.190430	1.479268
0.190918	1.479241
0.191406	1.479209
0.191895	1.479282
0.192383	1.479174
0.192871	1.479067
0.193359	1.479118
0.193848	1.479105
0.194336	1.479122
0.194824	1.479129
0.195312	1.479212
0.195801	1.478990
0.196289	1.479028
0.196777	1.478927
0.197266	1.479255
0.197754	1.479057
0.198242	1.479225
0.198730	1.479208
0.199219	1.479211
0.199707	1.479185
0.200195	1.479584
0.200684	1.479305
0.201172	1.479205
0.201660	1.479381
0.202148	1.479279
0.202637	1.479393
0.203125	1.479376
0.203613	1.479429
0.204102	1.479449
0.204590	1.479177
0.205078	1.479295
0.205566	1.479251
0.206055	1.479068
0.206543	1.479291
0.207031	1.479170
0.207520	1.479104
0.208008	1.479079
0.208496	1.478925
0.208984	1.479160
0.209473	1.478813
0.209961	1.478914
0.210449	1.478905
0.210937	1.479069
0.211426	1.479053
0.211914	1.479164
0.212402	1.479028
0.212891	1.479378
0.213379	1.479522
0.213867	1.479000
0.214355	1.479244
0.214844	1.479066
0.215332	1.479385
0.215820	1.479219
0.216309	1.479298
0.216797	1.479217
0.217285	1.479441
0.217773	1.479101
0.218262	1.479337
0.218750	1.479227
0.219238	1.479203
0.219727	1.479321
0.220215	1.479375
0.220703	1.479199
0.221191	1.479111
0.221680	1.479314
0.222168	1.479245
0.222656	1.479085
0.223145	1.479143
0.223633	1.479189
0.224121	1.478833
0.224609	1.479027
0.225098	1.478883
0.225586	1.479024
0.226074	1.479023
0.226562	1.478975
0.227051	1.478908
0.227539	1.478973
0.228027	1.478947
0.228516	1.479344
0.229004	1.479276
0.229492	1.479338
0.229980	1.479169
0.230469	1.479573
0.230957	1.479406
0.231445	1.479076
0.231934	1.479497
0.232422	1.479093
0.232910	1.479405
0.233398	1.479290
0.233887	1.479600
0.234375	1.479514
0.234863	1.479288
0.235352	1.479550
0.235840	1.479311
0.236328	1.479410
0.236816	1.479266
0.237305	1.479316
0.237793	1.479397
0.238281	1.479071
0.238770	1.479346
0.239258	1.478983
0.239746	1.479083
0.240234	1.479099
0.240723	1.479090
0.241211	1.478949
0.241699	1.479116
0.242187	1.479192
0.242676	1.479201
0.243164	1.479491
0.243652	1.479201
0.244141	1.479330
0.244629	1.479249
0.245117	1.479388
0.245605	1.479501
0.246094	1.479553
0.246582	1.479425
0.247070	1.479484
0.247559	1.479518
0.248047	1.479501
0.248535	1.479662
0.249023	1.479661
0.249512	1.479466
0.250000	1.479552
0.250488	1.479388
0.250977	1.479418
0.251465	1.479681
0.251953	1.479283
0.252441	1.479500
0.252930	1.479303
0.253418	1.479294
0.253906	1.479229
0.254395	1.478949
0.254883	1.479000
0.255371	1.479077
0.255859	1.479093
0.256348	1.479508
0.256836	1.479279
0.257324	1.479195
0.257812	1.479340
0.258301	1.479440
0.258789	1.479495
0.259277	1.479263
0.259766	1.479339
0.260254	1.479584
0.260742	1.479448
0.261230	1.479704
0.261719	1.479589
0.262207	1.479811
0.262695	1.479846
0.263184	1.479763
0.263672	1.479824
0.264160	1.479640
0.264648	1.479596
0.265137	1.479522
0.265625	1.479614
0.266113	1.479525
0.266602	1.479576
0.267090	1.479626
0.267578	1.479241
0.268066	1.479484
0.268555	1.479217
0.269043	1.479168
0.269531	1.479383
0.270020	1.479201
0.270508	1.479342
0.270996	1.479349
0.271484	1.479625
0.271973	1.479194
0.272461	1.479357
0.272949	1.479366
0.273437	1.479284
0.273926	1.479310
0.274414	1.479305
0.274902	1.479532
0.275391	1.479516
0.275879	1.479767
0.276367	1.479551
0.276855	1.479617
0.277344	1.479651
0.277832	1.479649
0.278320	1.479792
0.278809	1.479622
0.279297	1.479521
0.279785	1.479631
0.280273	1.479562
0.280762	1.479447
0.281250	1.479633
0.281738	1.479583
0.282227	1.479538
0.282715	1.479436
0.283203	1.479581
0.283691	1.479379
0.284180	1.479448
0.284668	1.479409
0.285156	1.479336
0.285645	1.479426
0.286133	1.479518
0.286621	1.479347
0.287109	1.479523
0.287598	1.479207
0.288086	1.479514
0.288574	1.479609
0.289062	1.479365
0.289551	1.479434
0.290039	1.479512
0.290527	1.479891
0.291016	1.479864
0.291504	1.479837
0.291992	1.479687
0.292480	1.479672
0.292969	1.479763
0.293457	1.479743
0.293945	1.479695
0.294434	1.479683
0.294922	1.479758
0.295410	1.479769
0.295898	1.479532
0.296387	1.479370
0.296875	1.479399
0.297363	1.479506
0.297852	1.479257
0.298340	1.479411
0.298828	1.479528
0.299316	1.479431
0.299805	1.479346
0.300293	1.479252
0.300781	1.479397
0.301270	1.479307
0.301758	1.479410
0.302246	1.479431
0.302734	1.479535
0.303223	1.479447
0.303711	1.479498
0.304199	1.479548
0.304687	1.479440
0.305176	1.479587
0.305664	1.479536
0.306152	1.479709
0.306641	1.479316
0.307129	1.479384
0.307617	1.479626
0.308105	1.479636
0.308594	1.479639
0.309082	1.479602
0.309570	1.479650
0.310059	1.479540
0.310547	1.479598
0.311035	1.479437
0.311523	1.479404
0.312012	1.479590
0.312500	1.479185
0.312988	1.479429
0.313477	1.479479
0.313965	1.479246
0.314453	1.479221
0.314941	1.479245
0.315430	1.479086
0.315918	1.479423
0.316406	1.479387
0.316895	1.479271
0.317383	1.479215
0.317871	1.479193
0.318359	1.479254
0.318848	1.479363
0.319336	1.479418
0.319824	1.479372
0.320312	1.479368
0.320801	1.479571
0.321289	1.479379
0.321777	1.479417
0.322266	1.479416
0.322754	1.479438
0.323242	1.479427
0.323730	1.479432
0.324219	1.479807
0.324707	1.479494
0.325195	1.479269
0.325684	1.479550
0.326172	1.479190
0.326660	1.479469
0.327148	1.479341
0.327637	1.479450
0.328125	1.479351
0.328613	1.479232
0.329102	1.479321
0.329590	1.479280
0.330078	1.479071
0.330566	1.479267
0.331055	1.479329
0.331543	1.479215
0.332031	1.479163
0.332520	1.479180
0.333008	1.479329
0.333496	1.479115
0.333984	1.479280
0.334473	1.479406
0.334961	1.479338
0.335449	1.479333
0.335937	1.479678
0.336426	1.479754
0.336914	1.479515
0.337402	1.479539
0.337891	1.479650
0.338379	1.479753
0.338867	1.479543
0.339355	1.479722
0.339844	1.479609
0.340332	1.479781
0.340820	1.479543
0.341309	1.479686
0.341797	1.479554
0.342285	1.479498
0.342773	1.479523
0.343262	1.479709
0.343750	1.479277
0.344238	1.479583
0.344727	1.479207
0.345215	1.478961
0.345703	1.479360
0.346191	1.479069
0.346680	1.479379
0.347168	1.479309
0.347656	1.479206
0.348145	1.479243
0.348633	1.479428
0.349121	1.479554
0.349609	1.479371
0.350098	1.479348
0.350586	1.479628
0.351074	1.479534
0.351562	1.479675
0.352051	1.479577
0.352539	1.479540
0.353027	1.479608
0.353516	1.479862
0.354004	1.479579
0.354492	1.479418
0.354980	1.479696
0.355469	1.479589
0.355957	1.479571
0.356445	1.479503
0.356934	1.479774
0.357422	1.479554
0.357910	1.479176
0.358398	1.479526
0.358887	1.479172
0.359375	1.479322
0.359863	1.479171
0.360352	1.479229
0.360840	1.479275
0.361328	1.479274
0.361816	1.479261
0.362305	1.479212
0.362793	1.479214
0.363281	1.479221
0.363770	1.479359
0.364258	1.479190
0.364746	1.479234
0.365234	1.479301
0.365723	1.479270
0.366211	1.479475
0.366699	1.479528
0.367187	1.479377
0.367676	1.479340
0.368164	1.479540
0.368652	1.479637
0.369141	1.479426
0.369629	1.479579
0.370117	1.479531
0.370605	1.479515
0.371094	1.479591
0.371582	1.479449
0.372070	1.479445
0.372559	1.479565
0.373047	1.479388
0.373535	1.479883
0.374023	1.479134
0.374512	1.478935
0.375000	1.479068
0.375488	1.479083
0.375977	1.479059
0.376465	1.479042
0.376953	1.479230
0.377441	1.479273
0.377930	1.479019
0.378418	1.479146
0.378906	1.479138
0.379395	1.479147
0.379883	1.479305
0.380371	1.479345
0.380859	1.479472
0.381348	1.479564
0.381836	1.479424
0.382324	1.479633
0.382812	1.479668
0.383301	1.479554
0.383789	1.479803
0.384277	1.479780
0.384766	1.479742
0.385254	1.479594
0.385742	1.479564
0.386230	1.479606
0.386719	1.479579
0.387207	1.479644
0.387695	1.479580
0.388184	1.479469
0.388672	1.479471
0.389160	1.479623
0.389648	1.479276
0.390137	1.479276
0.390625	1.479393
0.391113	1.479570
0.391602	1.479529
0.392090	1.479272
0.392578	1.479556
0.393066	1.479341
0.393555	1.479288
0.394043	1.479356
0.394531	1.479341
0.395020	1.479598
0.395508	1.479279
0.395996	1.479578
0.396484	1.479847
0.396973	1.479728
0.397461	1.479689
0.397949	1.479786
0.398437	1.479630
0.398926	1.479376
0.399414	1.479805
0.399902	1.479756
0.400391	1.479771
0.400879	1.479559
0.401367	1.479831
0.401855	1.479739
0.402344	1.479567
0.402832	1.479697
0.403320	1.479568
0.403809	1.479618
0.404297	1.479431
0.404785	1.479305
0.405273	1.479074
0.405762	1.479259
0.406250	1.479337
0.406738	1.479273
0.407227	1.479370
0.407715	1.479329
0.408203	1.479604
0.408691	1.479178
0.409180	1.479252
0.409668	1.479310
0.410156	1.479278
0.410645	1.479338
0.411133	1.479499
0.411621	1.479387
0.412109	1.479515
0.412598	1.479773
0.413086	1.479648
0.413574	1.479594
0.414062	1.479526
0.414551	1.479539
0.415039	1.479825
0.415527	1.479586
0.416016	1.479690
0.416504	1.479786
0.416992	1.479223
0.417480	1.479626
0.417969	1.479446
0.418457	1.479459
0.418945	1.479333
0.419434	1.479388
0.419922	1.479393
0.420410	1.479279
0.420898	1.479320
0.421387	1.479406
0.421875	1.479309
0.422363	1.479252
0.422852	1.479395
0.423340	1.479248
0.423828	1.479592
0.424316	1.479162
0.424805	1.479381
0.425293	1.479198
0.425781	1.479335
0.426270	1.479348
0.426758	1.479547
0.427246	1.479357
0.427734	1.479562
0.428223	1.479696
0.428711	1.479526
0.429199	1.479964
0.429687	1.479814
0.430176	1.479764
0.430664	1.479713
0.431152	1.479883
0.431641	1.479611
0.432129	1.479370
0.432617	1.479844
0.433105	1.479550
0.433594	1.479649
0.434082	1.479599
0.434570	1.479490
0.435059	1.479319
0.435547	1.479417
0.436035	1.479277
0.436523	1.479389
0.437012	1.479265
0.437500	1.479265
0.437988	1.479416
0.438477	1.479290
0.438965	1.479628
0.439453	1.479279
0.439941	1.479329
0.440430	1.479484
0.440918	1.479395
0.441406	1.479640
0.441895	1.479478
0.442383	1.479490
0.442871	1.479743
0.443359	1.479549
0.443848	1.479673
0.444336	1.479457
0.444824	1.479528
0.445312	1.479784
0.445801	1.479708
0.446289	1.479645
0.446777	1.479681
0.447266	1.479677
0.447754	1.479583
0.448242	1.479798
0.448730	1.479716
0.449219	1.479485
0.449707	1.479607
0.450195	1.479873
0.450684	1.479200
0.451172	1.479413
0.451660	1.479213
0.452148	1.479224
0.452637	1.479315
0.453125	1.479289
0.453613	1.479278
0.454102	1.479217
0.454590	1.479197
0.455078	1.479356
0.455566	1.479298
0.456055	1.479316
0.456543	1.479390
0.457031	1.479506
0.457520	1.479833
0.458008	1.479594
0.458496	1.479487
0.458984	1.479668
0.459473	1.479520
0.459961	1.479429
0.460449	1.479617
0.460937	1.479700
0.461426	1.479720
0.461914	1.479601
0.462402	1.479554
0.462891	1.479539
0.463379	1.479529
0.463867	1.479576
0.464355	1.479492
0.464844	1.479359
0.465332	1.479296
0.465820	1.479290
0.466309	1.479213
0.466797	1.479282
0.467285	1.479194
0.467773	1.479122
0.468262	1.479306
0.468750	1.479197
0.469238	1.479243
0.469727	1.478965
0.470215	1.479276
0.470703	1.479233
0.471191	1.479451
0.471680	1.479421
0.472168	1.479424
0.472656	1.479583
0.473145	1.479356
0.473633	1.479644
0.474121	1.479709
0.474609	1.479570
0.475098	1.479581
0.475586	1.479776
0.476074	1.479701
0.476562	1.479585
0.477051	1.479749
0.477539	1.479830
0.478027	1.479781
0.478516	1.479537
0.479004	1.479527
0.479492	1.479659
0.479980	1.479157
0.480469	1.479419
0.480957	1.479461
0.481445	1.479409
0.481934	1.479326
0.482422	1.479310
0.482910	1.479482
0.483398	1.479503
0.483887	1.479473
0.484375	1.479343
0.484863	1.479367
0.485352	1.479378
0.485840	1.479398
0.486328	1.479538
0.486816	1.479431
0.487305	1.479733
0.487793	1.479652
0.488281	1.479864
0.488770	1.479772
0.489258	1.479772
0.489746	1.479894
0.490234	1.479863
0.490723	1.479817
0.491211	1.479923
0.491699	1.479771
0.492187	1.479801
0.492676	1.479689
0.493164	1.479877
0.493652	1.479853
0.494141	1.479549
0.494629	1.479784
0.495117	1.479503
0.495605	1.479595
0.496094	1.479514
0.496582	1.479585
0.497070	1.479500
0.497559	1.479583
0.498047	1.479341
0.498535	1.479454
0.499023	1.479346
0.499512	1.479261
0.500000	1.479426
0.500488	1.479396
0.500977	1.479331
0.501465	1.479521
0.501953	1.479404
0.502441	1.479435
0.502930	1.479377
0.503418	1.479695
0.503906	1.479496
0.504395	1.479747
0.504883	1.479698
0.505371	1.479637
0.505859	1.479636
0.506348	1.479749
0.506836	1.479598
0.507324	1.479377
0.507812	1.479497
0.508301	1.479538
0.508789	1.479697
0.509277	1.479464
0.509766	1.479363
0.510254	1.479232
0.510742	1.479337
0.511230	1.479547
0.511719	1.479493
0.512207	1.479317
0.512695	1.479392
0.513184	1.479517
0.513672	1.479043
0.514160	1.479289
0.514648	1.478922
0.515137	1.479002
0.515625	1.479196
0.516113	1.479189
0.516602	1.479235
0.517090	1.479376
0.517578	1.479491
0.518066	1.479516
0.518555	1.479441
0.519043	1.479549
0.519531	1.479780
0.520020	1.479695
0.520508	1.479570
0.520996	1.479822
0.521484	1.479816
0.521973	1.479288
0.522461	1.479758
0.522949	1.479432
0.523437	1.479530
0.523926	1.479319
0.524414	1.479625
0.524902	1.479385
0.525391	1.479579
0.525879	1.479487
0.526367	1.479345
0.526855	1.479252
0.527344	1.479199
0.527832	1.479144
0.528320	1.479476
0.528809	1.479423
0.529297	1.479493
0.529785	1.479351
0.530273	1.479386
0.530762	1.479370
0.531250	1.479474
0.531738	1.479559
0.532227	1.479640
0.532715	1.479571
0.533203	1.479600
0.533691	1.479725
0.534180	1.479785
0.534668	1.479348
0.535156	1.479552
0.535645	1.479444
0.536133	1.479547
0.536621	1.479594
0.537109	1.479563
0.537598	1.479913
0.538086	1.479622
0.538574	1.479584
0.539062	1.479686
0.539551	1.479694
0.540039	1.479316
0.540527	1.479499
0.541016	1.479370
0.541504	1.479418
0.541992	1.479194
0.542480	1.479471
0.542969	1.479316
0.543457	1.479240
0.543945	1.479375
0.544434	1.479277
0.544922	1.479410
0.545410	1.479042
0.545898	1.479163
0.546387	1.479151
0.546875	1.479166
0.547363	1.479315
0.547852	1.479316
0.548340	1.479645
0.548828	1.479554
0.549316	1.479412
0.549805	1.479581
0.550293	1.479192
0.550781	1.479513
0.551270	1.479581
0.551758	1.479663
0.552246	1.479365
0.552734	1.479672
0.553223	1.479547
0.553711	1.479472
0.554199	1.479390
0.554687	1.479339
0.555176	1.479289
0.555664	1.479398
0.556152	1.479268
0.556641	1.479168
0.557129	1.479125
0.557617	1.479186
0.558105	1.478970
0.558594	1.479134
0.559082	1.479102
0.559570	1.478892
0.560059	1.479125
0.560547	1.479160
0.561035	1.479064
0.561523	1.479094
0.562012	1.479141
0.562500	1.479149
0.562988	1.479326
0.563477	1.479178
0.563965	1.479374
0.564453	1.479309
0.564941	1.479319
0.565430	1.479390
0.565918	1.479335
0.566406	1.479301
0.566895	1.479241
0.567383	1.479340
0.567871	1.479246
0.568359	1.479275
0.568848	1.479173
0.569336	1.479534
0.569824	1.479248
0.570312	1.479273
0.570801	1.479277
0.571289	1.479313
0.571777	1.479235
0.572266	1.479174
0.572754	1.479092
0.573242	1.479074
0.573730	1.479319
0.574219	1.479263
0.574707	1.479175
0.575195	1.479224
0.575684	1.478838
0.576172	1.479288
0.576660	1.479179
0.577148	1.479049
0.577637	1.479192
0.578125	1.479329
0.578613	1.479632
0.579102	1.479352
0.579590	1.479423
0.580078	1.479588
0.580566	1.479430
0.581055	1.479470
0.581543	1.479680
0.582031	1.479563
0.582520	1.479426
0.583008	1.479573
0.583496	1.479490
0.583984	1.479575
0.584473	1.479351
0.584961	1.479238
0.585449	1.479238
0.585937	1.479255
0.586426	1.479392
0.586914	1.479174
0.587402	1.479300
0.587891	1.479107
0.588379	1.479121
0.588867	1.479168
0.589355	1.478989
0.589844	1.479237
0.590332	1.479061
0.590820	1.479089
0.591309	1.479114
0.591797	1.479447
0.592285	1.479251
0.592773	1.479412
0.593262	1.479324
0.593750	1.479457
0.594238	1.479567
0.594727	1.479065
0.595215	1.479315
0.595703	1.479245
0.596191	1.479163
0.596680	1.479428
0.597168	1.479238
0.597656	1.479573
0.598145	1.479132
0.598633	1.479096
0.599121	1.479380
0.599609	1.479282
0.600098	1.479221
0.600586	1.479032
0.601074	1.478956
0.601562	1.479132
0.602051	1.479078
0.602539	1.479019
0.603027	1.478862
0.603516	1.478846
0.604004	1.478925
0.604492	1.478820
0.604980	1.478725
0.605469	1.478720
0.605957	1.478849
0.606445	1.478977
0.606934	1.479082
0.607422	1.478899
0.607910	1.478854
0.608398	1.478914
0.608887	1.479052
0.609375	1.479143
0.609863	1.479251
0.610352	1.478789
0.610840	1.479128
0.611328	1.479046
0.611816	1.479176
0.612305	1.479074
0.612793	1.479225
0.613281	1.479634
0.613770	1.478914
0.614258	1.479005
0.614746	1.478998
0.615234	1.478780
0.615723	1.478915
0.616211	1.478949
0.616699	1.479041
0.617187	1.478885
0.617676	1.478658
0.618164	1.478873
0.618652	1.478825
0.619141	1.478942
0.619629	1.478747
0.620117	1.478902
0.620605	1.478951
0.621094	1.478977
0.621582	1.479010
0.622070	1.478903
0.622559	1.478994
0.623047	1.479066
0.623535	1.479278
0.624023	1.478842
0.624512	1.479157
0.625000	1.478994
0.625488	1.479171
0.625977	1.479057
0.626465	1.479078
0.626953	1.479502
0.627441	1.479309
0.627930	1.479244
0.628418	1.479313
0.628906	1.479248
0.629395	1.479093
0.629883	1.479278
0.630371	1.479138
0.630859	1.479191
0.631348	1.479130
0.631836	1.479230
0.632324	1.479174
0.632812	1.479032
0.633301	1.479085
0.633789	1.479062
0.634277	1.479088
0.634766	1.478985
0.635254	1.478949
0.635742	1.479242
0.636230	1.478867
0.636719	1.479093
0.637207	1.479218
0.637695	1.479288
0.638184	1.479204
0.638672	1.479260
0.639160	1.479128
0.639648	1.479168
0.640137	1.479440
0.640625	1.479305
0.641113	1.479515
0.641602	1.479495
0.642090	1.479619
0.642578	1.479594
0.643066	1.479578
0.643555	1.479568
0.644043	1.479385
0.644531	1.479393
0.645020	1.479442
0.645508	1.479500
0.645996	1.479290
0.646484	1.479323
0.646973	1.479631
0.647461	1.479132
0.647949	1.478993
0.648437	1.479150
0.648926	1.479013
0.649414	1.479276
0.649902	1.479305
0.650391	1.479193
0.650879	1.478975
0.651367	1.479266
0.651855	1.479210
0.652344	1.479049
0.652832	1.479205
0.653320	1.479146
0.653809	1.479308
0.654297	1.479183
0.654785	1.479430
0.655273	1.479373
0.655762	1.479485
0.656250	1.479326
0.656738	1.479515
0.657227	1.479479
0.657715	1.479343
0.658203	1.479330
0.658691	1.479264
0.659180	1.479409
0.659668	1.479257
0.660156	1.479453
0.660645	1.479330
0.661133	1.479269
0.661621	1.479462
0.662109	1.479150
0.662598	1.479177
0.663086	1.479266
0.663574	1.479137
0.664062	1.479140
0.664551	1.479055
0.665039	1.478968
0.665527	1.479241
0.666016	1.479191
0.666504	1.479027
0.666992	1.479268
0.667480	1.479277
0.667969	1.479180
0.668457	1.479357
0.668945	1.479407
0.669434	1.479329
0.669922	1.479581
0.670410	1.479521
0.670898	1.479689
0.671387	1.479590
0.671875	1.479659
0.672363	1.479820
0.672852	1.479721
0.673340	1.479822
0.673828	1.479627
0.674316	1.479666
0.674805	1.479695
0.675293	1.479668
0.675781	1.479752
0.676270	1.479835
0.676758	1.479822
0.677246	1.479526
0.677734	1.479686
0.678223	1.479583
0.678711	1.479582
0.679199	1.479494
0.679687	1.479404
0.680176	1.479402
0.680664	1.479396
0.681152	1.479553
0.681641	1.479494
0.682129	1.479410
0.682617	1.479481
0.683105	1.479512
0.683594	1.479501
0.684082	1.479762
0.684570	1.479576
0.685059	1.479905
0.685547	1.479753
0.686035	1.479800
0.686523	1.479600
0.687012	1.479682
0.687500	1.479633
0.687988	1.479550
0.688477	1.479553
0.688965	1.479708
0.689453	1.479722
0.689941	1.479618
0.690430	1.479641
0.690918	1.479352
0.691406	1.479731
0.691895	1.479537
0.692383	1.479501
0.692871	1.479323
0.693359	1.479501
0.693848	1.479514
0.694336	1.479706
0.694824	1.479186
0.695312	1.479285
0.695801	1.479133
0.696289	1.479071
0.696777	1.479251
0.697266	1.479066
0.697754	1.479539
0.698242	1.479359
0.698730	1.479386
0.699219	1.479319
0.699707	1.479233
0.700195	1.479241
0.700684	1.479673
0.701172	1.479650
0.701660	1.479610
0.702148	1.479383
0.702637	1.479704
0.703125	1.479616
0.703613	1.479539
0.704102	1.479434
0.704590	1.479231
0.705078	1.479248
0.705566	1.479299
0.706055	1.479512
0.706543	1.479119
0.707031	1.479407
0.707520	1.479250
0.708008	1.479274
0.708496	1.479122
0.708984	1.479192
0.709473	1.479208
0.709961	1.479202
0.710449	1.479219
0.710937	1.479069
0.711426	1.479431
0.711914	1.479190
0.712402	1.479107
0.712891	1.479321
0.713379	1.479210
0.713867	1.479353
0.714355	1.479186
0.714844	1.479326
0.715332	1.479315
0.715820	1.479280
0.716309	1.479538
0.716797	1.479583
0.717285	1.479458
0.717773	1.479385
0.718262	1.479541
0.718750	1.479128
0.719238	1.479267
0.719727	1.479201
0.720215	1.479233
0.720703	1.479314
0.721191	1.479432
0.721680	1.479379
0.722168	1.479343
0.722656	1.479243
0.723145	1.479434
0.723633	1.479345
0.724121	1.479185
0.724609	1.479203
0.725098	1.479119
0.725586	1.479113
0.726074	1.479064
0.726562	1.478892
0.727051	1.479232
0.727539	1.479010
0.728027	1.479352
0.728516	1.479276
0.729004	1.479304
0.729492	1.479082
0.729980	1.479499
0.730469	1.479265
0.730957	1.479224
0.731445	1.479476
0.731934	1.479334
0.732422	1.479445
0.732910	1.479296
0.733398	1.479634
0.733887	1.479590
0.734375	1.479371
0.734863	1.479315
0.735352	1.479320
0.735840	1.479221
0.736328	1.479263
0.736816	1.479241
0.737305	1.479286
0.737793	1.479183
0.738281	1.479153
0.738770	1.479039
0.739258	1.478977
0.739746	1.479074
0.740234	1.478945
0.740723	1.478856
0.741211	1.479017
0.741699	1.479263
0.742187	1.478953
0.742676	1.479122
0.743164	1.478972
0.743652	1.479202
0.744141	1.478995
0.744629	1.479229
0.745117	1.478920
0.745605	1.479185
0.746094	1.479135
0.746582	1.479233
0.747070	1.479045
0.747559	1.479053
0.748047	1.479186
0.748535	1.479194
0.749023	1.479230
0.749512	1.479157
0.750000	1.479000
0.750488	1.479169
0.750977	1.479036
0.751465	1.479106
0.751953	1.479039
0.752441	1.478771
0.752930	1.479034
0.753418	1.478832
0.753906	1.478920
0.754395	1.478803
0.754883	1.478671
0.755371	1.478626
0.755859	1.478676
0.756348	1.478776
0.756836	1.478634
0.757324	1.478850
0.757812	1.478823
0.758301	1.478801
0.758789	1.478811
0.759277	1.478911
0.759766	1.478599
0.760254	1.478775
0.760742	1.478853
0.761230	1.479018
0.761719	1.479150
0.762207	1.478992
0.762695	1.479118
0.763184	1.479168
0.763672	1.479131
0.764160	1.479084
0.764648	1.479126
0.765137	1.478857
0.765625	1.478941
0.766113	1.479046
0.766602	1.479025
0.767090	1.478944
0.767578	1.478822
0.768066	1.478976
0.768555	1.478941
0.769043	1.479024
0.769531	1.479186
0.770020	1.478927
0.770508	1.478930
0.770996	1.479053
0.771484	1.478886
0.771973	1.478828
0.772461	1.478817
0.772949	1.478612
0.773437	1.478974
0.773926	1.478911
0.774414	1.479086
0.774902	1.478826
0.775391	1.479066
0.775879	1.479078
0.776367	1.478748
0.776855	1.479119
0.777344	1.479128
0.777832	1.479154
0.778320	1.479053
0.778809	1.479163
0.779297	1.479454
0.779785	1.479092
0.780273	1.479293
0.780762	1.479041
0.781250	1.479135
0.781738	1.479218
0.782227	1.479029
0.782715	1.479207
0.783203	1.479126
0.783691	1.479143
0.784180	1.478998
0.784668	1.478934
0.785156	1.478764
0.785645	1.478838
0.786133	1.479129
0.786621	1.478767
0.787109	1.478786
0.787598	1.478930
0.788086	1.478606
0.788574	1.478971
0.789062	1.478789
0.789551	1.478873
0.790039	1.478857
0.790527	1.479061
0.791016	1.479173
0.791504	1.479199
0.791992	1.479194
0.792480	1.479201
0.792969	1.479016
0.793457	1.478970
0.793945	1.479185
0.794434	1.479163
0.794922	1.479044
0.795410	1.479233
0.795898	1.479033
0.796387	1.478772
0.796875	1.479077
0.797363	1.479096
0.797852	1.479060
0.798340	1.478797
0.798828	1.478917
0.799316	1.479060
0.799805	1.478653
0.800293	1.478769
0.800781	1.478778
0.801270	1.478962
0.801758	1.478844
0.802246	1.478806
0.802734	1.478726
0.803223	1.478767
0.803711	1.478625
0.804199	1.478923
0.804687	1.478753
0.805176	1.478793
0.805664	1.478950
0.806152	1.478802
0.806641	1.478773
0.807129	1.478981
0.807617	1.478918
0.808105	1.478945
0.808594	1.479129
0.809082	1.478916
0.809570	1.479107
0.810059	1.479041
0.810547	1.479149
0.811035	1.479261
0.811523	1.479118
0.812012	1.479096
0.812500	1.479057
0.812988	1.479029
0.813477	1.478715
0.813965	1.478994
0.814453	1.478932
0.814941	1.478780
0.815430	1.479149
0.815918	1.478696
0.816406	1.478404
0.816895	1.478844
0.817383	1.478529
0.817871	1.479009
0.818359	1.478492
0.818848	1.478857
0.819336	1.479125
0.819824	1.478923
0.820312	1.479096
0.820801	1.479108
0.821289	1.479344
0.821777	1.479097
0.822266	1.479197
0.822754	1.479357
0.823242	1.479312
0.823730	1.479418
0.824219	1.479562
0.824707	1.479399
0.825195	1.479307
0.825684	1.479313
0.826172	1.479351
0.826660	1.479437
0.827148	1.479354
0.827637	1.479197
0.828125	1.479407
0.828613	1.479205
0.829102	1.479179
0.829590	1.479236
0.830078	1.479307
0.830566	1.479252
0.831055	1.479274
0.831543	1.479143
0.832031	1.479286
0.832520	1.478935
0.833008	1.479035
0.833496	1.479138
0.833984	1.478884
0.834473	1.478961
0.834961	1.478998
0.835449	1.479284
0.835937	1.479287
0.836426	1.479271
0.836914	1.479382
0.837402	1.479565
0.837891	1.479388
0.838379	1.479483
0.838867	1.479400
0.839355	1.479236
0.839844	1.479327
0.840332	1.479474
0.840820	1.479488
0.841309	1.479561
0.841797	1.479611
0.842285	1.479483
0.842773	1.479533
0.843262	1.479554
0.843750	1.479270
0.844238	1.479353
0.844727	1.479276
0.845215	1.479312
0.845703	1.479504
0.846191	1.479124
0.846680	1.479224
0.847168	1.479066
0.847656	1.479153
0.848145	1.479062
0.848633	1.479241
0.849121	1.479138
0.849609	1.479185
0.850098	1.479354
0.850586	1.479268
0.851074	1.479359
0.851562	1.479448
0.852051	1.479529
0.852539	1.479403
0.853027	1.479365
0.853516	1.479454
0.854004	1.479461
0.854492	1.479356
0.854980	1.479460
0.855469	1.479651
0.855957	1.479333
0.856445	1.479266
0.856934	1.479564
0.857422	1.479443
0.857910	1.479521
0.858398	1.479486
0.858887	1.479301
0.859375	1.479432
0.859863	1.479075
0.860352	1.479219
0.860840	1.479116
0.861328	1.478938
0.861816	1.479152
0.862305	1.479044
0.862793	1.479204
0.863281	1.479089
0.863770	1.479525
0.864258	1.479248
0.864746	1.479298
0.865234	1.479260
0.865723	1.479439
0.866211	1.479305
0.866699	1.479440
0.867187	1.479544
0.867676	1.479610
0.868164	1.479542
0.868652	1.479744
0.869141	1.479460
0.869629	1.479556
0.870117	1.479595
0.870605	1.479545
0.871094	1.479482
0.871582	1.479694
0.872070	1.479549
0.872559	1.479607
0.873047	1.479517
0.873535	1.479342
0.874023	1.479454
0.874512	1.479285
0.875000	1.479155
0.875488	1.479174
0.875977	1.478909
0.876465	1.479421
0.876953	1.479199
0.877441	1.479272
0.877930	1.479295
0.878418	1.479349
0.878906	1.479155
0.879395	1.479415
0.879883	1.479320
0.880371	1.479398
0.880859	1.479343
0.881348	1.479547
0.881836	1.479296
0.882324	1.479438
0.882812	1.479256
0.883301	1.479286
0.883789	1.479526
0.884277	1.479379
0.884766	1.479451
0.885254	1.479333
0.885742	1.479520
0.886230	1.479480
0.886719	1.479371
0.887207	1.479265
0.887695	1.479235
0.888184	1.479341
0.888672	1.479224
0.889160	1.479244
0.889648	1.479328
0.890137	1.479317
0.890625	1.479075
0.891113	1.479201
0.891602	1.479429
0.892090	1.478703
0.892578	1.479173
0.893066	1.478905
0.893555	1.478892
0.894043	1.478824
0.894531	1.478922
0.895020	1.479071
0.895508	1.478831
0.895996	1.478927
0.896484	1.478842
0.896973	1.478893
0.897461	1.479153
0.897949	1.479112
0.898437	1.479129
0.898926	1.479137
0.899414	1.479231
0.899902	1.479218
0.900391	1.479170
0.900879	1.479061
0.901367	1.479345
0.901855	1.479313
0.902344	1.479339
0.902832	1.479151
0.903320	1.479124
0.903809	1.479345
0.904297	1.479011
0.904785	1.479088
0.905273	1.479255
0.905762	1.478783
0.906250	1.478939
0.906738	1.479042
0.907227	1.479034
0.907715	1.478952
0.908203	1.478722
0.908691	1.479200
0.909180	1.478779
0.909668	1.478761
0.910156	1.478949
0.910645	1.478808
0.911133	1.479064
0.911621	1.479162
0.912109	1.479040
0.912598	1.479083
0.913086	1.479409
0.913574	1.479229
0.914062	1.479324
0.914551	1.479036
0.915039	1.479326
0.915527	1.479348
0.916016	1.479388
0.916504	1.479235
0.916992	1.479581
0.917480	1.479077
0.917969	1.479227
0.918457	1.479294
0.918945	1.478963
0.919434	1.479278
0.919922	1.479117
0.920410	1.479119
0.920898	1.479086
0.921387	1.479102
0.921875	1.479172
0.922363	1.478837
0.922852	1.478928
0.923340	1.479093
0.923828	1.478858
0.924316	1.479077
0.924805	1.478920
0.925293	1.478956
0.925781	1.479159
0.926270	1.478971
0.926758	1.479214
0.927246	1.479122
0.927734	1.479075
0.928223	1.479295
0.928711	1.479111
0.929199	1.479265
0.929687	1.479327
0.930176	1.479156
0.930664	1.479708
0.931152	1.479191
0.931641	1.479318
0.932129	1.479254
0.932617	1.479067
0.933105	1.479279
0.933594	1.479423
0.934082	1.479232
0.934570	1.479195
0.935059	1.479180
0.935547	1.479251
0.936035	1.479082
0.936523	1.479117
0.937012	1.479189
0.937500	1.479059
0.937988	1.479323
0.938477	1.479141
0.938965	1.479109
0.939453	1.478893
0.939941	1.479182
0.940430	1.479004
0.940918	1.479127
0.941406	1.479015
0.941895	1.479246
0.942383	1.478984
0.942871	1.479335
0.943359	1.479311
0.943848	1.479298
0.944336	1.479385
0.944824	1.479295
0.945312	1.479314
0.945801	1.479484
0.946289	1.479267
0.946777	1.479517
0.947266	1.479454
0.947754	1.479502
0.948242	1.479408
0.948730	1.479093
0.949219	1.479609
0.949707	1.479062
0.950195	1.479326
0.950684	1.479185
0.951172	1.479208
0.951660	1.479441
0.952148	1.479104
0.952637	1.479053
0.953125	1.478925
0.953613	1.479198
0.954102	1.479030
0.954590	1.479065
0.955078	1.478855
0.955566	1.479103
0.956055	1.478787
0.956543	1.479218
0.957031	1.478972
0.957520	1.479153
0.958008	1.479405
0.958496	1.479354
0.958984	1.479394
0.959473	1.479252
0.959961	1.479377
0.960449	1.479368
0.960937	1.479590
0.961426	1.479332
0.961914	1.479547
0.962402	1.479194
0.962891	1.479574
0.963379	1.479511
0.963867	1.479345
0.964355	1.479330
0.964844	1.479338
0.965332	1.479197
0.965820	1.479282
0.966309	1.479478
0.966797	1.479105
0.967285	1.479376
0.967773	1.478799
0.968262	1.479069
0.968750	1.479143
0.969238	1.479002
0.969727	1.479017
0.970215	1.479185
0.970703	1.479032
0.971191	1.479202
0.971680	1.479332
0.972168	1.479305
0.972656	1.479025
0.973145	1.479255
0.973633	1.479311
0.974121	1.479363
0.974609	1.479025
0.975098	1.479520
0.975586	1.479379
0.976074	1.479465
0.976562	1.479548
0.977051	1.479282
0.977539	1.479387
0.978027	1.479508
0.978516	1.479412
0.979004	1.479142
0.979492	1.479331
0.979980	1.479252
0.980469	1.479279
0.980957	1.479156
0.981445	1.479168
0.981934	1.478915
0.982422	1.479179
0.982910	1.478977
0.983398	1.479202
0.983887	1.478970
0.984375	1.479193
0.984863	1.479076
0.985352	1.478690
0.985840	1.478955
0.986328	1.478723
0.986816	1.478855
0.987305	1.478890
0.987793	1.479022
0.988281	1.479372
0.988770	1.479082
0.989258	1.479137
0.989746	1.479240
0.990234	1.479322
0.990723	1.479236
0.991211	1.479271
0.991699	1.479229
0.992187	1.479293
0.992676	1.479316
0.993164	1.479276
0.993652	1.479400
0.994141	1.479195
0.994629	1.479315
0.995117	1.478857
0.995605	1.478898
0.996094	1.478951
0.996582	1.478909
0.997070	1.478848
0.997559	1.478907
0.998047	1.478839
0.998535	1.478744
0.999023	1.478889
0.999512	1.478963
1.000000	1.478702
1.000488	1.478695
1.000977	1.478751
1.001465	1.479166
1.001953	1.478875
1.002441	1.479209
1.002930	1.479146
1.003418	1.479132
1.003906	1.479289
1.004395	1.479184
1.004883	1.479196
1.005371	1.479392
1.005859	1.479182
1.006348	1.479386
1.006836	1.479367
1.007324	1.479039
1.007812	1.479448
1.008301	1.479257
1.008789	1.479250
1.009277	1.479170
1.009766	1.479409
1.010254	1.479401
1.010742	1.479170
1.011230	1.479226
1.011719	1.479077
1.012207	1.479048
1.012695	1.478848
1.013184	1.479177
1.013672	1.478930
1.014160	1.479022
1.014648	1.479119
1.015137	1.479011
1.015625	1.479059
1.016113	1.479169
1.016602	1.479084
1.017090	1.479186
1.017578	1.479035
1.018066	1.479323
1.018555	1.479186
1.019043	1.479484
1.019531	1.479241
1.020020	1.479357
1.020508	1.479342
1.020996	1.479398
1.021484	1.479443
1.021973	1.479302
1.022461	1.479344
1.022949	1.479339
1.023437	1.479468
1.023926	1.479194
1.024414	1.479574
1.024902	1.479391
1.025391	1.479248
1.025879	1.479279
1.026367	1.479146
1.026855	1.479194
1.027344	1.478866
1.027832	1.479143
1.028320	1.479118
1.028809	1.479182
1.029297	1.478866
1.029785	1.479024
1.030273	1.478966
1.030762	1.479080
1.031250	1.479514
1.031738	1.479113
1.032227	1.479108
1.032715	1.479320
1.033203	1.479250
1.033691	1.479182
1.034180	1.479283
1.034668	1.479169
1.035156	1.479351
1.035645	1.479276
1.036133	1.479481
1.036621	1.479451
1.037109	1.479502
1.037598	1.479564
1.038086	1.479561
1.038574	1.479566
1.039062	1.479486
1.039551	1.479415
1.040039	1.479374
1.040527	1.479536
1.041016	1.479305
1.041504	1.479630
1.041992	1.479251
1.042480	1.479240
1.042969	1.479208
1.043457	1.479166
1.043945	1.479146
1.044434	1.479110
1.044922	1.479129
1.045410	1.479226
1.045898	1.479243
1.046387	1.479015
1.046875	1.479051
1.047363	1.479219
1.047852	1.479229
1.048340	1.479080
1.048828	1.479319
1.049316	1.479429
1.049805	1.479275
1.050293	1.479493
1.050781	1.479547
1.051270	1.479625
1.051758	1.479551
1.052246	1.479555
1.052734	1.479378
1.053223	1.479536
1.053711	1.479597
1.054199	1.479608
1.054687	1.479186
1.055176	1.479432
1.055664	1.479229
1.056152	1.479224
1.056641	1.479277
1.057129	1.479312
1.057617	1.479264
1.058105	1.479327
1.058594	1.479335
1.059082	1.479188
1.059570	1.479221
1.060059	1.479170
1.060547	1.479374
1.061035	1.479277
1.061523	1.479523
1.062012	1.479221
1.062500	1.479486
1.062988	1.479295
1.063477	1.479392
1.063965	1.479269
1.064453	1.479427
1.064941	1.479224
1.065430	1.479454
1.065918	1.479336
1.066406	1.479427
1.066895	1.479655
1.067383	1.479551
1.067871	1.479598
1.068359	1.479631
1.068848	1.479592
1.069336	1.479400
1.069824	1.479487
1.070312	1.479478
1.070801	1.479480
1.071289	1.479558
1.071777	1.479629
1.072266	1.479494
1.072754	1.479313
1.073242	1.479221
1.073730	1.479375
1.074219	1.479310
1.074707	1.479191
1.075195	1.479182
1.075684	1.479363
1.076172	1.479117
1.076660	1.479291
1.077148	1.479248
1.077637	1.479506
1.078125	1.479228
1.078613	1.479321
1.079102	1.479381
1.079590	1.479448
1.080078	1.479361
1.080566	1.479448
1.081055	1.479460
1.081543	1.479518
1.082031	1.479522
1.082520	1.479576
1.083008	1.479398
1.083496	1.479522
1.083984	1.479703
1.084473	1.479687
1.084961	1.479465
1.085449	1.479561
1.085937	1.479589
1.086426	1.479335
1.086914	1.479440
1.087402	1.479395
1.087891	1.479262
1.088379	1.479311
1.088867	1.479321
1.089355	1.479182
1.089844	1.479216
1.090332	1.479420
1.090820	1.479146
1.091309	1.479169
1.091797	1.479385
1.092285	1.479159
1.092773	1.479310
1.093262	1.479248
1.093750	1.479202
1.094238	1.479284
1.094727	1.479286
1.095215	1.479460
1.095703	1.479575
1.096191	1.479613
1.096680	1.479435
1.097168	1.479570
1.097656	1.479562
1.098145	1.479553
1.098633	1.479667
1.099121	1.479440
1.099609	1.479711
1.100098	1.479500
1.100586	1.479443
1.101074	1.479539
1.101562	1.479347
1.102051	1.479534
1.102539	1.479429
1.103027	1.479664
1.103516	1.479636
1.104004	1.479051
1.104492	1.479365
1.104980	1.479093
1.105469	1.479114
1.105957	1.479255
1.106445	1.479198
1.106934	1.479365
1.107422	1.479235
1.107910	1.479727
1.108398	1.479129
1.108887	1.479340
1.109375	1.479268
1.109863	1.479189
1.110352	1.479465
1.110840	1.479484
1.111328	1.479527
1.111816	1.479589
1.112305	1.479715
1.112793	1.479535
1.113281	1.479500
1.113770	1.479677
1.114258	1.479712
1.114746	1.479771
1.115234	1.479575
1.115723	1.479664
1.116211	1.479601
1.116699	1.479479
1.117187	1.479556
1.117676	1.479407
1.118164	1.479515
1.118652	1.479264
1.119141	1.479274
1.119629	1.479080
1.120117	1.479266
1.120605	1.479078
1.121094	1.479281
1.121582	1.479055
1.122070	1.479189
1.122559	1.479150
1.123047	1.479265
1.123535	1.479104
1.124023	1.479432
1.124512	1.479243
1.125000	1.479530
1.125488	1.479609
1.125977	1.479586
1.126465	1.479434
1.126953	1.479528
1.127441	1.479556
1.127930	1.479667
1.128418	1.479670
1.128906	1.479727
1.129395	1.479533
1.129883	1.479611
1.130371	1.479489
1.130859	1.479503
1.131348	1.479692
1.131836	1.479565
1.132324	1.479387
1.132812	1.479411
1.133301	1.479370
1.133789	1.479331
1.134277	1.479535
1.134766	1.479309
1.135254	1.479305
1.135742	1.479426
1.136230	1.479352
1.136719	1.479127
1.137207	1.479336
1.137695	1.479369
1.138184	1.479354
1.138672	1.479268
1.139160	1.479382
1.139648	1.479481
1.140137	1.479394
1.140625	1.479559
1.141113	1.479725
1.141602	1.479621
1.142090	1.479698
1.142578	1.479608
1.143066	1.479556
1.143555	1.479720
1.144043	1.479434
1.144531	1.479599
1.145020	1.479559
1.145508	1.479564
1.145996	1.479672
1.146484	1.479554
1.146973	1.479363
1.147461	1.479442
1.147949	1.479360
1.148437	1.479338
1.148926	1.479297
1.149414	1.479473
1.149902	1.479374
1.150391	1.479312
1.150879	1.479233
1.151367	1.479462
1.151855	1.479401
1.152344	1.479021
1.152832	1.479365
1.153320	1.479393
1.153809	1.479316
1.154297	1.479228
1.154785	1.479478
1.155273	1.479424
1.155762	1.479383
1.156250	1.479561
1.156738	1.479628
1.157227	1.479464
1.157715	1.479528
1.158203	1.479493
1.158691	1.479654
1.159180	1.479554
1.159668	1.479290
1.160156	1.479631
1.160645	1.479667
1.161133	1.479362
1.161621	1.479448
1.162109	1.479470
1.162598	1.479403
1.163086	1.479260
1.163574	1.479238
1.164062	1.479240
1.164551	1.479086
1.165039	1.479174
1.165527	1.479186
1.166016	1.478922
1.166504	1.479041
1.166992	1.479357
1.167480	1.479328
1.167969	1.479539
1.168457	1.479323
1.168945	1.479219
1.169434	1.479384
1.169922	1.479661
1.170410	1.479246
1.170898	1.479554
1.171387	1.479391
1.171875	1.479531
1.172363	1.479189
1.172852	1.479558
1.173340	1.479320
1.173828	1.479343
1.174316	1.479362
1.174805	1.479347
1.175293	1.479313
1.175781	1.479460
1.176270	1.479459
1.176758	1.479356
1.177246	1.479495
1.177734	1.479283
1.178223	1.479224
1.178711	1.479082
1.179199	1.479063
1.179687	1.479139
1.180176	1.479135
1.180664	1.479180
1.181152	1.479208
1.181641	1.479031
1.182129	1.479154
1.182617	1.479108
1.183105	1.479175
1.183594	1.479447
1.184082	1.479301
1.184570	1.479279
1.185059	1.479250
1.185547	1.479282
1.186035	1.479419
1.186523	1.479305
1.187012	1.479349
1.187500	1.479454
1.187988	1.479344
1.188477	1.479449
1.188965	1.479464
1.189453	1.479517
1.189941	1.479392
1.190430	1.479335
1.190918	1.479308
1.191406	1.479607
1.191895	1.479280
1.192383	1.479420
1.192871	1.479411
1.193359	1.479295
1.193848	1.479343
1.194336	1.478870
1.194824	1.479088
1.195312	1.478913
1.195801	1.479101
1.196289	1.478846
1.196777	1.479232
1.197266	1.478916
1.197754	1.479176
1.198242	1.479267
1.198730	1.479162
1.199219	1.479207
1.199707	1.479240
1.200195	1.479207
1.200684	1.479161
1.201172	1.479367
1.201660	1.479430
1.202148	1.479173
1.202637	1.479425
1.203125	1.479518
1.203613	1.479149
1.204102	1.479233
1.204590	1.479397
1.205078	1.479313
1.205566	1.479105
1.206055	1.479204
1.206543	1.479252
1.207031	1.479243
1.207520	1.479006
1.208008	1.478966
1.208496	1.478903
1.208984	1.479071
1.209473	1.478882
1.209961	1.479088
1.210449	1.478887
1.210937	1.479063
1.211426	1.478958
1.211914	1.479077
1.212402	1.478743
1.212891	1.478929
1.213379	1.478706
1.213867	1.478781
1.214355	1.478768
1.214844	1.478794
1.215332	1.478943
1.215820	1.478668
1.216309	1.479055
1.216797	1.479003
1.217285	1.479206
1.217773	1.479058
1.218262	1.479213
1.218750	1.479046
1.219238	1.479228
1.219727	1.479178
1.220215	1.479380
1.220703	1.479052
1.221191	1.478990
1.221680	1.479259
1.222168	1.479090
1.222656	1.479156
1.223145	1.478951
1.223633	1.479190
1.224121	1.479221
1.224609	1.478950
1.225098	1.478849
1.225586	1.478758
1.226074	1.478730
1.226562	1.478859
1.227051	1.478753
1.227539	1.479215
1.228027	1.478756
1.228516	1.478866
1.229004	1.478797
1.229492	1.478819
1.229980	1.478903
1.230469	1.478966
1.230957	1.479025
1.231445	1.479099
1.231934	1.479288
1.232422	1.479185
1.232910	1.479182
1.233398	1.479158
1.233887	1.479022
1.234375	1.479306
1.234863	1.479204
1.235352	1.479227
1.235840	1.479470
1.236328	1.479250
1.236816	1.479153
1.237305	1.479155
1.237793	1.479180
1.238281	1.479066
1.238770	1.479122
1.239258	1.478991
1.239746	1.479025
1.240234	1.478868
1.240723	1.479083
1.241211	1.478864
1.241699	1.478991
1.242187	1.478839
1.242676	1.479011
1.243164	1.478666
1.243652	1.479129
1.244141	1.478927
1.244629	1.479150
1.245117	1.479176
1.245605	1.479178
1.246094	1.479085
1.246582	1.479056
1.247070	1.479226
1.247559	1.479132
1.248047	1.479072
1.248535	1.478995
1.249023	1.479277
1.249512	1.479148
1.250000	1.479321
1.250488	1.479230
1.250977	1.479252
1.251465	1.479536
1.251953	1.479204
1.252441	1.479376
1.252930	1.479338
1.253418	1.479201
1.253906	1.479366
1.254395	1.479096
1.254883	1.479212
1.255371	1.478976
1.255859	1.478991
1.256348	1.479157
1.256836	1.479212
1.257324	1.479132
1.257812	1.479102
1.258301	1.479090
1.258789	1.479294
1.259277	1.478869
1.259766	1.478967
1.260254	1.479055
1.260742	1.479043
1.261230	1.479249
1.261719	1.479323
1.262207	1.479269
1.262695	1.479480
1.263184	1.479410
1.263672	1.479305
1.264160	1.479310
1.264648	1.479349
1.265137	1.479461
1.265625	1.479409
1.266113	1.479409
1.266602	1.479296
1.267090	1.479354
1.267578	1.479530
1.268066	1.479239
1.268555	1.479454
1.269043	1.479287
1.269531	1.479043
1.270020	1.479247
1.270508	1.479047
1.270996	1.479393
1.271484	1.479362
1.271973	1.479224
1.272461	1.479540
1.272949	1.479146
1.273437	1.479116
1.273926	1.479051
1.274414	1.479053
1.274902	1.478944
1.275391	1.479347
1.275879	1.479154
1.276367	1.479345
1.276855	1.479583
1.277344	1.479324
1.277832	1.479412
1.278320	1.479408
1.278809	1.479418
1.279297	1.479493
1.279785	1.479401
1.280273	1.479537
1.280762	1.479539
1.281250	1.479503
1.281738	1.479622
1.282227	1.479431
1.282715	1.479355
1.283203	1.479515
1.283691	1.479487
1.284180	1.479580
1.284668	1.479161
1.285156	1.479147
1.285645	1.479260
1.286133	1.479054
1.286621	1.479298
1.287109	1.479080
1.287598	1.479345
1.288086	1.479180
1.288574	1.479246
1.289062	1.479241
1.289551	1.479176
1.290039	1.479252
1.290527	1.479243
1.291016	1.479364
1.291504	1.479449
1.291992	1.479422
1.292480	1.479495
1.292969	1.479339
1.293457	1.479357
1.293945	1.479568
1.294434	1.479410
1.294922	1.479497
1.295410	1.479315
1.295898	1.479822
1.296387	1.479309
1.296875	1.479235
1.297363	1.479483
1.297852	1.479346
1.298340	1.479449
1.298828	1.479373
1.299316	1.479284
1.299805	1.479392
1.300293	1.479069
1.300781	1.479299
1.301270	1.479172
1.301758	1.479238
1.302246	1.479154
1.302734	1.479129
1.303223	1.479257
1.303711	1.479181
1.304199	1.479087
1.304687	1.479156
1.305176	1.479108
1.305664	1.479168
1.306152	1.479318
1.306641	1.479194
1.307129	1.479268
1.307617	1.479259
1.308105	1.479451
1.308594	1.479499
1.309082	1.479365
1.309570	1.479507
1.310059	1.479457
1.310547	1.479252
1.311035	1.479523
1.311523	1.479595
1.312012	1.479537
1.312500	1.479382
1.312988	1.479566
1.313477	1.479499
1.313965	1.479147
1.314453	1.479218
1.314941	1.479075
1.315430	1.479113
1.315918	1.479057
1.316406	1.478957
1.316895	1.479224
1.317383	1.479097
1.317871	1.479030
1.318359	1.479169
1.318848	1.479160
1.319336	1.478947
1.319824	1.479141
1.320312	1.479032
1.320801	1.479122
1.321289	1.479241
1.321777	1.479284
1.322266	1.479239
1.322754	1.479240
1.323242	1.479203
1.323730	1.479454
1.324219	1.479340
1.324707	1.479421
1.325195	1.479469
1.325684	1.479365
1.326172	1.479293
1.326660	1.479428
1.327148	1.479138
1.327637	1.479356
1.328125	1.479272
1.328613	1.479288
1.329102	1.479218
1.329590	1.479213
1.330078	1.479171
1.330566	1.479171
1.331055	1.479200
1.331543	1.479148
1.332031	1.479097
1.332520	1.479066
1.333008	1.479211
1.333496	1.478867
1.333984	1.479185
1.334473	1.479022
1.334961	1.479175
1.335449	1.479154
1.335937	1.479213
1.336426	1.479160
1.336914	1.478978
1.337402	1.479266
1.337891	1.479082
1.338379	1.479277
1.338867	1.479421
1.339355	1.479229
1.339844	1.479348
1.340332	1.479255
1.340820	1.479385
1.341309	1.479376
1.341797	1.479398
1.342285	1.479512
1.342773	1.479401
1.343262	1.479524
1.343750	1.479259
1.344238	1.479182
1.344727	1.479212
1.345215	1.478748
1.345703	1.479211
1.346191	1.478996
1.346680	1.479089
1.347168	1.478740
1.347656	1.479298
1.348145	1.479081
1.348633	1.479160
1.349121	1.479233
1.349609	1.479099
1.350098	1.479136
1.350586	1.479078
1.351074	1.479194
1.351562	1.479261
1.352051	1.479150
1.352539	1.479158
1.353027	1.479252
1.353516	1.479154
1.354004	1.479429
1.354492	1.479323
1.354980	1.479312
1.355469	1.479534
1.355957	1.479091
1.356445	1.479310
1.356934	1.479224
1.357422	1.479212
1.357910	1.479170
1.358398	1.479194
1.358887	1.479347
1.359375	1.479089
1.359863	1.479199
1.360352	1.478949
1.360840	1.479032
1.361328	1.479037
1.361816	1.479065
1.362305	1.478870
1.362793	1.478798
1.363281	1.479011
1.363770	1.479041
1.364258	1.478963
1.364746	1.478897
1.365234	1.478858
1.365723	1.479008
1.366211	1.479003
1.366699	1.478996
1.367187	1.479166
1.367676	1.479104
1.368164	1.479067
1.368652	1.479102
1.369141	1.479416
1.369629	1.479238
1.370117	1.479248
1.370605	1.479111
1.371094	1.479085
1.371582	1.479386
1.372070	1.479124
1.372559	1.479112
1.373047	1.479252
1.373535	1.479077
1.374023	1.479137
1.374512	1.478968
1.375000	1.479044
1.375488	1.479149
1.375977	1.478830
1.376465	1.478775
1.376953	1.479022
1.377441	1.478975
1.377930	1.479017
1.378418	1.478867
1.378906	1.479088
1.379395	1.478825
1.379883	1.478642
1.380371	1.478897
1.380859	1.478628
1.381348	1.479045
1.381836	1.479030
1.382324	1.479151
1.382812	1.479321
1.383301	1.479000
1.383789	1.479249
1.384277	1.479002
1.384766	1.478925
1.385254	1.479095
1.385742	1.479081
1.386230	1.478962
1.386719	1.479159
1.387207	1.478999
1.387695	1.479153
1.388184	1.479010
1.388672	1.478989
1.389160	1.479106
1.389648	1.479025
1.390137	1.478869
1.390625	1.478828
1.391113	1.478960
1.391602	1.478689
1.392090	1.478795
1.392578	1.478843
1.393066	1.478655
1.393555	1.478517
1.394043	1.478617
1.394531	1.478583
1.395020	1.478523
1.395508	1.478567
1.395996	1.478748
1.396484	1.478552
1.396973	1.478767
1.397461	1.478587
1.397949	1.478927
1.398437	1.478706
1.398926	1.478948
1.399414	1.478912
1.399902	1.478970
1.400391	1.478918
1.400879	1.478947
1.401367	1.479105
1.401855	1.479249
1.402344	1.478972
1.402832	1.478963
1.403320	1.478958
1.403809	1.478899
1.404297	1.479077
1.404785	1.478685
1.405273	1.479102
1.405762	1.478891
1.406250	1.478916
1.406738	1.478764
1.407227	1.478524
1.407715	1.478834
1.408203	1.478316
1.408691	1.478558
1.409180	1.478756
1.409668	1.478642
1.410156	1.478695
1.410645	1.478716
1.411133	1.478745
1.411621	1.478929
1.412109	1.478894
1.412598	1.478871
1.413086	1.478911
1.413574	1.478881
1.414062	1.479132
1.414551	1.478894
1.415039	1.478846
1.415527	1.478946
1.416016	1.479279
1.416504	1.478921
1.416992	1.479219
1.417480	1.479155
1.417969	1.479206
1.418457	1.479291
1.418945	1.479168
1.419434	1.479240
1.419922	1.478886
1.420410	1.478974
1.420898	1.478953
1.421387	1.479093
1.421875	1.478854
1.422363	1.478981
1.422852	1.478830
1.423340	1.478950
1.423828	1.478894
1.424316	1.478887
1.424805	1.478761
1.425293	1.478803
1.425781	1.478886
1.426270	1.478887
1.426758	1.478833
1.427246	1.478751
1.427734	1.479096
1.428223	1.478776
1.428711	1.479097
1.429199	1.479241
1.429687	1.479222
1.430176	1.479057
1.430664	1.479221
1.431152	1.479328
1.431641	1.479384
1.432129	1.479173
1.432617	1.479548
1.433105	1.479361
1.433594	1.479341
1.434082	1.479214
1.434570	1.479064
1.435059	1.478950
1.435547	1.479014
1.436035	1.479169
1.436523	1.479085
1.437012	1.478909
1.437500	1.478801
1.437988	1.478904
1.438477	1.478706
1.438965	1.478985
1.439453	1.478862
1.439941	1.478868
1.440430	1.478814
1.440918	1.479060
1.441406	1.478891
1.441895	1.478764
1.442383	1.478885
1.442871	1.479136
1.443359	1.478975
1.443848	1.479064
1.444336	1.479210
1.444824	1.479121
1.445312	1.478943
1.445801	1.479112
1.446289	1.479112
1.446777	1.479083
1.447266	1.479276
1.447754	1.479200
1.448242	1.479049
1.448730	1.479284
1.449219	1.479285
1.449707	1.478923
1.450195	1.479223
1.450684	1.478890
1.451172	1.479026
1.451660	1.479025
1.452148	1.478908
1.452637	1.478983
1.453125	1.478748
1.453613	1.478716
1.454102	1.478898
1.454590	1.478902
1.455078	1.478672
1.455566	1.478732
1.456055	1.478739
1.456543	1.478799
1.457031	1.478831
1.457520	1.478991
1.458008	1.478914
1.458496	1.478889
1.458984	1.479066
1.459473	1.478985
1.459961	1.478955
1.460449	1.479030
1.460937	1.478961
1.461426	1.479246
1.461914	1.479117
1.462402	1.479257
1.462891	1.479147
1.463379	1.479274
1.463867	1.479303
1.464355	1.479112
1.464844	1.478886
1.465332	1.479269
1.465820	1.479235
1.466309	1.479003
1.466797	1.478956
1.467285	1.479243
1.467773	1.479035
1.468262	1.478651
1.468750	1.478896
1.469238	1.478828
1.469727	1.478978
1.470215	1.478769
1.470703	1.478758
1.471191	1.478698
1.471680	1.479057
1.472168	1.478774
1.472656	1.479038
1.473145	1.478581
1.473633	1.478927
1.474121	1.478965
1.474609	1.478684
1.475098	1.478925
1.475586	1.478732
1.476074	1.478932
1.476562	1.478887
1.477051	1.479076
1.477539	1.479298
1.478027	1.478919
1.478516	1.478941
1.479004	1.478987
1.479492	1.478958
1.479980	1.478930
1.480469	1.478970
1.480957	1.478845
1.481445	1.479015
1.481934	1.478977
1.482422	1.478916
1.482910	1.478723
1.483398	1.478801
1.483887	1.478512
1.484375	1.478945
1.484863	1.478568
1.485352	1.478902
1.485840	1.478784
1.486328	1.478220
1.486816	1.478748
1.487305	1.478571
1.487793	1.478587
1.488281	1.478672
1.488770	1.478711
1.489258	1.478743
1.489746	1.478856
1.490234	1.478877
1.490723	1.479049
1.491211	1.478894
1.491699	1.479039
1.492187	1.478974
1.492676	1.479009
1.493164	1.479108
1.493652	1.478912
1.494141	1.478865
1.494629	1.478902
1.495117	1.478824
1.495605	1.478510
1.496094	1.478696
1.496582	1.478871
1.497070	1.478828
1.497559	1.478408
1.498047	1.478720
1.498535	1.478535
1.499023	1.478867
1.499512	1.479014
1.500000	1.478612
1.500488	1.478670
1.500977	1.478823
1.501465	1.478861
1.501953	1.478586
1.502441	1.478668
1.502930	1.478499
1.503418	1.478844
1.503906	1.478666
1.504395	1.478866
1.504883	1.478409
1.505371	1.478847
1.505859	1.478876
1.506348	1.478886
1.506836	1.478855
1.507324	1.478817
1.507812	1.478962
1.508301	1.478856
1.508789	1.478965
1.509277	1.479049
1.509766	1.478992
1.510254	1.479087
1.510742	1.478979
1.511230	1.479244
1.511719	1.479100
1.512207	1.478896
1.512695	1.478942
1.513184	1.478980
1.513672	1.478897
1.514160	1.478843
1.514648	1.478672
1.515137	1.478709
1.515625	1.478745
1.516113	1.478648
1.516602	1.478779
1.517090	1.478761
1.517578	1.478662
1.518066	1.478611
1.518555	1.478881
1.519043	1.478779
1.519531	1.478513
1.520020	1.478978
1.520508	1.479008
1.520996	1.479071
1.521484	1.479193
1.521973	1.479261
1.522461	1.478987
1.522949	1.479143
1.523437	1.479166
1.523926	1.479307
1.524414	1.479097
1.524902	1.479080
1.525391	1.479174
1.525879	1.479118
1.526367	1.479064
1.526855	1.479097
1.527344	1.478748
1.527832	1.478905
1.528320	1.478967
1.528809	1.478895
1.529297	1.478876
1.529785	1.479003
1.530273	1.479024
1.530762	1.478731
1.531250	1.478892
1.531738	1.479033
1.532227	1.478924
1.532715	1.478805
1.533203	1.478820
1.533691	1.479090
1.534180	1.478934
1.534668	1.478986
1.535156	1.479195
1.535645	1.479163
1.536133	1.478994
1.536621	1.479295
1.537109	1.479172
1.537598	1.479275
1.538086	1.479123
1.538574	1.479016
1.539062	1.479142
1.539551	1.478978
1.540039	1.479247
1.540527	1.479086
1.541016	1.479156
1.541504	1.479231
1.541992	1.478920
1.542480	1.478964
1.542969	1.479219
1.543457	1.478905
1.543945	1.478796
1.544434	1.478974
1.544922	1.478787
1.545410	1.478919
1.545898	1.478742
1.546387	1.478997
1.546875	1.479165
1.547363	1.478720
1.547852	1.478821
1.548340	1.478797
1.548828	1.479025
1.549316	1.478989
1.549805	1.479086
1.550293	1.479058
1.550781	1.479138
1.551270	1.479390
1.551758	1.479482
1.552246	1.479276
1.552734	1.479410
1.553223	1.479325
1.553711	1.479477
1.554199	1.479483
1.554687	1.479392
1.555176	1.479386
1.555664	1.479232
1.556152	1.479385
1.556641	1.479337
1.557129	1.479379
1.557617	1.479280
1.558105	1.479357
1.558594	1.479263
1.559082	1.479186
1.559570	1.479149
1.560059	1.479165
1.560547	1.479184
1.561035	1.479266
1.561523	1.479383
1.562012	1.479213
1.562500	1.479140
1.562988	1.479491
1.563477	1.479254
1.563965	1.479005
1.564453	1.479210
1.564941	1.479133
1.565430	1.479358
1.565918	1.479311
1.566406	1.479553
1.566895	1.479507
1.567383	1.479368
1.567871	1.479611
1.568359	1.479617
1.568848	1.479442
1.569336	1.479563
1.569824	1.479487
1.570312	1.479545
1.570801	1.479601
1.571289	1.479582
1.571777	1.479593
1.572266	1.479486
1.572754	1.479214
1.573242	1.479418
1.573730	1.479290
1.574219	1.479283
1.574707	1.479147
1.575195	1.479071
1.575684	1.479200
1.576172	1.479016
1.576660	1.478845
1.577148	1.479095
1.577637	1.478873
1.578125	1.479171
1.578613	1.479187
1.579102	1.478941
1.579590	1.479198
1.580078	1.479005
1.580566	1.479222
1.581055	1.479021
1.581543	1.479135
1.582031	1.479404
1.582520	1.479252
1.583008	1.479382
1.583496	1.479401
1.583984	1.479304
1.584473	1.479384
1.584961	1.479093
1.585449	1.479268
1.585937	1.479213
1.586426	1.479121
1.586914	1.479176
1.587402	1.479172
1.587891	1.479082
1.588379	1.479066
1.588867	1.479097
1.589355	1.478844
1.589844	1.478901
1.590332	1.478799
1.590820	1.478906
1.591309	1.478961
1.591797	1.478934
1.592285	1.478887
1.592773	1.479100
1.593262	1.478903
1.593750	1.479193
1.594238	1.479100
1.594727	1.478942
1.595215	1.479042
1.595703	1.478919
1.596191	1.479129
1.596680	1.478985
1.597168	1.479327
1.597656	1.479335
1.598145	1.479249
1.598633	1.479051
1.599121	1.479409
1.599609	1.479299
1.600098	1.479200
1.600586	1.479311
1.601074	1.479214
1.601562	1.479453
1.602051	1.479144
1.602539	1.479241
1.603027	1.479289
1.603516	1.478988
1.604004	1.479181
1.604492	1.479185
1.604980	1.479016
1.605469	1.478876
1.605957	1.478983
1.606445	1.478833
1.606934	1.478833
1.607422	1.478766
1.607910	1.479003
1.608398	1.478834
1.608887	1.478919
1.609375	1.479025
1.609863	1.479042
1.610352	1.479165
1.610840	1.478991
1.611328	1.479138
1.611816	1.479445
1.612305	1.479068
1.612793	1.479476
1.613281	1.479440
1.613770	1.479307
1.614258	1.479481
1.614746	1.479365
1.615234	1.479648
1.615723	1.479032
1.616211	1.479457
1.616699	1.479484
1.617187	1.479363
1.617676	1.479235
1.618164	1.479212
1.618652	1.479191
1.619141	1.479244
1.619629	1.479133
1.620117	1.479117
1.620605	1.479082
1.621094	1.479100
1.621582	1.478968
1.622070	1.479196
1.622559	1.479038
1.623047	1.479248
1.623535	1.479202
1.624023	1.479165
1.624512	1.478959
1.625000	1.478975
1.625488	1.479230
1.625977	1.479141
1.626465	1.479317
1.626953	1.479350
1.627441	1.479282
1.627930	1.479430
1.628418	1.479171
1.628906	1.479325
1.629395	1.479216
1.629883	1.479240
1.630371	1.479241
1.630859	1.479529
1.631348	1.479458
1.631836	1.479335
1.632324	1.479487
1.632812	1.479279
1.633301	1.479406
1.633789	1.479297
1.634277	1.479272
1.634766	1.479048
1.635254	1.479038
1.635742	1.479195
1.636230	1.479154
1.636719	1.479047
1.637207	1.479120
1.637695	1.478818
1.638184	1.479131
1.638672	1.478878
1.639160	1.479032
1.639648	1.478919
1.640137	1.479180
1.640625	1.478922
1.641113	1.479172
1.641602	1.479219
1.642090	1.479301
1.642578	1.479367
1.643066	1.479152
1.643555	1.479232
1.644043	1.479269
1.644531	1.479257
1.645020	1.479366
1.645508	1.479302
1.645996	1.479182
1.646484	1.479237
1.646973	1.479216
1.647461	1.479102
1.647949	1.479141
1.648437	1.479242
1.648926	1.479069
1.649414	1.479270
1.649902	1.479194
1.650391	1.479026
1.650879	1.479060
1.651367	1.479119
1.651855	1.479180
1.652344	1.478769
1.652832	1.479005
1.653320	1.479295
1.653809	1.479033
1.654297	1.479099
1.654785	1.479022
1.655273	1.479018
1.655762	1.479358
1.656250	1.479279
1.656738	1.479356
1.657227	1.479271
1.657715	1.479313
1.658203	1.479358
1.658691	1.479606
1.659180	1.479439
1.659668	1.479486
1.660156	1.479306
1.660645	1.479465
1.661133	1.479417
1.661621	1.479389
1.662109	1.479640
1.662598	1.479439
1.663086	1.479356
1.663574	1.479177
1.664062	1.479505
1.664551	1.479453
1.665039	1.478936
1.665527	1.479216
1.666016	1.478952
1.666504	1.478992
1.666992	1.479046
1.667480	1.479150
1.667969	1.478917
1.668457	1.479089
1.668945	1.479241
1.669434	1.478927
1.669922	1.478969
1.670410	1.479092
1.670898	1.479015
1.671387	1.479130
1.671875	1.479115
1.672363	1.479140
1.672852	1.479205
1.673340	1.478779
1.673828	1.479301
1.674316	1.478887
1.674805	1.479190
1.675293	1.479243
1.675781	1.479335
1.676270	1.479448
1.676758	1.479217
1.677246	1.479121
1.677734	1.479003
1.678223	1.478982
1.678711	1.479161
1.679199	1.479036
1.679687	1.479053
1.680176	1.478784
1.680664	1.478830
1.681152	1.478944
1.681641	1.478801
1.682129	1.478781
1.682617	1.478780
1.683105	1.478933
1.683594	1.478623
1.684082	1.478947
1.684570	1.478778
1.685059	1.478747
1.685547	1.478850
1.686035	1.478823
1.686523	1.478710
1.687012	1.478606
1.687500	1.478803
1.687988	1.478861
1.688477	1.478872
1.688965	1.479158
1.689453	1.478903
1.689941	1.478994
1.690430	1.478756
1.690918	1.478988
1.691406	1.478988
1.691895	1.478841
1.692383	1.478928
1.692871	1.479000
1.693359	1.478900
1.693848	1.478877
1.694336	1.479108
1.694824	1.478763
1.695312	1.479000
1.695801	1.478949
1.696289	1.479110
1.696777	1.478751
1.697266	1.478720
1.697754	1.478794
1.698242	1.478931
1.698730	1.478751
1.699219	1.478878
1.699707	1.478646
1.700195	1.478668
1.700684	1.479003
1.701172	1.478913
1.701660	1.478927
1.702148	1.478877
1.702637	1.478992
1.703125	1.478962
1.703613	1.478823
1.704102	1.479113
1.704590	1.478823
1.705078	1.479251
1.705566	1.479252
1.706055	1.479235
1.706543	1.479241
1.707031	1.479006
1.707520	1.479013
1.708008	1.478945
1.708496	1.479169
1.708984	1.479167
1.709473	1.478995
1.709961	1.479080
1.710449	1.478916
1.710937	1.479062
1.711426	1.478897
1.711914	1.478975
1.712402	1.478980
1.712891	1.478911
1.713379	1.478919
1.713867	1.479027
1.714355	1.478954
1.714844	1.478665
1.715332	1.478862
1.715820	1.478942
1.716309	1.479035
1.716797	1.478910
1.717285	1.479140
1.717773	1.478898
1.718262	1.479061
1.718750	1.479045
1.719238	1.479036
1.719727	1.478968
1.720215	1.479063
1.720703	1.479029
1.721191	1.479127
1.721680	1.479249
1.722168	1.479144
1.722656	1.479175
1.723145	1.479324
1.723633	1.479030
1.724121	1.479123
1.724609	1.479069
1.725098	1.478892
1.725586	1.479078
1.726074	1.479085
1.726562	1.478949
1.727051	1.479143
1.727539	1.479086
1.728027	1.478782
1.728516	1.478952
1.729004	1.479141
1.729492	1.479052
1.729980	1.478953
1.730469	1.478913
1.730957	1.479316
1.731445	1.479005
1.731934	1.478829
1.732422	1.479006
1.732910	1.478809
1.733398	1.479127
1.733887	1.478980
1.734375	1.479318
1.734863	1.479184
1.735352	1.479061
1.735840	1.479370
1.736328	1.478917
1.736816	1.479244
1.737305	1.479107
1.737793	1.479243
1.738281	1.478935
1.738770	1.479093
1.739258	1.479116
1.739746	1.479206
1.740234	1.479099
1.740723	1.479141
1.741211	1.479042
1.741699	1.479291
1.742187	1.479216
1.742676	1.479016
1.743164	1.479041
1.743652	1.479110
1.744141	1.479113
1.744629	1.479010
1.745117	1.478944
1.745605	1.478966
1.746094	1.479105
1.746582	1.479030
1.747070	1.479355
1.747559	1.479002
1.748047	1.479426
1.748535	1.479448
1.749023	1.479445
1.749512	1.479291
1.750000	1.479576
1.750488	1.479490
1.750977	1.479745
1.751465	1.479636
1.751953	1.479652
1.752441	1.479346
1.752930	1.479484
1.753418	1.479485
1.753906	1.479451
1.754395	1.479321
1.754883	1.479130
1.755371	1.479318
1.755859	1.479251
1.756348	1.479493
1.756836	1.479067
1.757324	1.479388
1.757812	1.479305
1.758301	1.479409
1.758789	1.479161
1.759277	1.479264
1.759766	1.479215
1.760254	1.479183
1.760742	1.479238
1.761230	1.479254
1.761719	1.479595
1.762207	1.479339
1.762695	1.479346
1.763184	1.479603
1.763672	1.479606
1.764160	1.479530
1.764648	1.479354
1.765137	1.479495
1.765625	1.479534
1.766113	1.479488
1.766602	1.479423
1.767090	1.479374
1.767578	1.479559
1.768066	1.479136
1.768555	1.479426
1.769043	1.479072
1.769531	1.479158
1.770020	1.479439
1.770508	1.479235
1.770996	1.479008
1.771484	1.479177
1.771973	1.479022
1.772461	1.478947
1.772949	1.479074
1.773437	1.478921
1.773926	1.479014
1.774414	1.478974
1.774902	1.478867
1.775391	1.478759
1.775879	1.478923
1.776367	1.479120
1.776855	1.478797
1.777344	1.479360
1.777832	1.479138
1.778320	1.479065
1.778809	1.479157
1.779297	1.479187
1.779785	1.479301
1.780273	1.478920
1.780762	1.478988
1.781250	1.479238
1.781738	1.478981
1.782227	1.479039
1.782715	1.479196
1.783203	1.479155
1.783691	1.479197
1.784180	1.479083
1.784668	1.479033
1.785156	1.479106
1.785645	1.478803
1.786133	1.478878
1.786621	1.478624
1.787109	1.478846
1.787598	1.479044
1.788086	1.478799
1.788574	1.479166
1.789062	1.478716
1.789551	1.478696
1.790039	1.478851
1.790527	1.478639
1.791016	1.478982
1.791504	1.478945
1.791992	1.479315
1.792480	1.479305
1.792969	1.478987
1.793457	1.479061
1.793945	1.479094
1.794434	1.479235
1.794922	1.479135
1.795410	1.479130
1.795898	1.479149
1.796387	1.479329
1.796875	1.479198
1.797363	1.479518
1.797852	1.479169
1.798340	1.479262
1.798828	1.479304
1.799316	1.479371
1.799805	1.479074
1.800293	1.479307
1.800781	1.479079
1.801270	1.479505
1.801758	1.479313
1.802246	1.479050
1.802734	1.479078
1.803223	1.478929
1.803711	1.479099
1.804199	1.478925
1.804687	1.479188
1.805176	1.479220
1.805664	1.479108
1.806152	1.479130
1.806641	1.478913
1.807129	1.479388
1.807617	1.478949
1.808105	1.479093
1.808594	1.479174
1.809082	1.479399
1.809570	1.479214
1.810059	1.479330
1.810547	1.479460
1.811035	1.479513
1.811523	1.479703
1.812012	1.479473
1.812500	1.479443
1.812988	1.479251
1.813477	1.479468
1.813965	1.479313
1.814453	1.479225
1.814941	1.479261
1.815430	1.479190
1.815918	1.479202
1.816406	1.479239
1.816895	1.478885
1.817383	1.479171
1.817871	1.478679
1.818359	1.479066
1.818848	1.478998
1.819336	1.478959
1.819824	1.479159
1.820312	1.478834
1.820801	1.478941
1.821289	1.479151
1.821777	1.479235
1.822266	1.478845
1.822754	1.478975
1.823242	1.479158
1.823730	1.479182
1.824219	1.479190
1.824707	1.479143
1.825195	1.479071
1.825684	1.479226
1.826172	1.479172
1.826660	1.479290
1.827148	1.479008
1.827637	1.479362
1.828125	1.479255
1.828613	1.479385
1.829102	1.479138
1.829590	1.479265
1.830078	1.479238
1.830566	1.479332
1.831055	1.479240
1.831543	1.479105
1.832031	1.479072
1.832520	1.478769
1.833008	1.478933
1.833496	1.478900
1.833984	1.479051
1.834473	1.478958
1.834961	1.478754
1.835449	1.479036
1.835937	1.478903
1.836426	1.478848
1.836914	1.478952
1.837402	1.478894
1.837891	1.479257
1.838379	1.479011
1.838867	1.479212
1.839355	1.479165
1.839844	1.479126
1.840332	1.479331
1.840820	1.479278
1.841309	1.479262
1.841797	1.479104
1.842285	1.479339
1.842773	1.479322
1.843262	1.479323
1.843750	1.479376
1.844238	1.479374
1.844727	1.479204
1.845215	1.479115
1.845703	1.479169
1.846191	1.479174
1.846680	1.479093
1.847168	1.479041
1.847656	1.479249
1.848145	1.478834
1.848633	1.479224
1.849121	1.479150
1.849609	1.479132
1.850098	1.479138
1.850586	1.478959
1.851074	1.479099
1.851562	1.479099
1.852051	1.479182
1.852539	1.479054
1.853027	1.479429
1.853516	1.479097
1.854004	1.479463
1.854492	1.479302
1.854980	1.479178
1.855469	1.479413
1.855957	1.479248
1.856445	1.479356
1.856934	1.479370
1.857422	1.479564
1.857910	1.479562
1.858398	1.479386
1.858887	1.479561
1.859375	1.479396
1.859863	1.479194
1.860352	1.479390
1.860840	1.479531
1.861328	1.479450
1.861816	1.479338
1.862305	1.479194
1.862793	1.479431
1.863281	1.478797
1.863770	1.478940
1.864258	1.479033
1.864746	1.478814
1.865234	1.478944
1.865723	1.479003
1.866211	1.479077
1.866699	1.478916
1.867187	1.478979
1.867676	1.478917
1.868164	1.478830
1.868652	1.479078
1.869141	1.479063
1.869629	1.478970
1.870117	1.478955
1.870605	1.479241
1.871094	1.479215
1.871582	1.479137
1.872070	1.479171
1.872559	1.478859
1.873047	1.479118
1.873535	1.479305
1.874023	1.478975
1.874512	1.479193
1.875000	1.478826
1.875488	1.478760
1.875977	1.478999
1.876465	1.479003
1.876953	1.478933
1.877441	1.478818
1.877930	1.478976
1.878418	1.478986
1.878906	1.478512
1.879395	1.478734
1.879883	1.478546
1.880371	1.478595
1.880859	1.478702
1.881348	1.478776
1.881836	1.479017
1.882324	1.478699
1.882812	1.478978
1.883301	1.478634
1.883789	1.478881
1.884277	1.478851
1.884766	1.478704
1.885254	1.479150
1.885742	1.478968
1.886230	1.478805
1.886719	1.478808
1.887207	1.478891
1.887695	1.479159
1.888184	1.478715
1.888672	1.479004
1.889160	1.479075
1.889648	1.478885
1.890137	1.478960
1.890625	1.478894
1.891113	1.478842
1.891602	1.479310
1.892090	1.479062
1.892578	1.478634
1.893066	1.478747
1.893555	1.478942
1.894043	1.478777
1.894531	1.478645
1.895020	1.478644
1.895508	1.478635
1.895996	1.478849
1.896484	1.478519
1.896973	1.478931
1.897461	1.478678
1.897949	1.478800
1.898437	1.479055
1.898926	1.478794
1.899414	1.478967
1.899902	1.478933
1.900391	1.479017
1.900879	1.479144
1.901367	1.479119
1.901855	1.479327
1.902344	1.479254
1.902832	1.479200
1.903320	1.479116
1.903809	1.479028
1.904297	1.479258
1.904785	1.479136
1.905273	1.479067
1.905762	1.478900
1.906250	1.478996
1.906738	1.478967
1.907227	1.478944
1.907715	1.479037
1.908203	1.478780
1.908691	1.478838
1.909180	1.478565
1.909668	1.478830
1.910156	1.478684
1.910645	1.478792
1.911133	1.478678
1.911621	1.478842
1.912109	1.478814
1.912598	1.478767
1.913086	1.478659
1.913574	1.478972
1.914062	1.478931
1.914551	1.479111
1.915039	1.478880
1.915527	1.478889
1.916016	1.478985
1.916504	1.478866
1.916992	1.479162
1.917480	1.478996
1.917969	1.478967
1.918457	1.478914
1.918945	1.479068
1.919434	1.479009
1.919922	1.478886
1.920410	1.479189
1.920898	1.478887
1.921387	1.478773
1.921875	1.479135
1.922363	1.478725
1.922852	1.478920
1.923340	1.478755
1.923828	1.478728
1.924316	1.478946
1.924805	1.478455
1.925293	1.478821
1.925781	1.478726
1.926270	1.478721
1.926758	1.478765
1.927246	1.478570
1.927734	1.478632
1.928223	1.478680
1.928711	1.478646
1.929199	1.478859
1.929687	1.478876
1.930176	1.479066
1.930664	1.478834
1.931152	1.478968
1.931641	1.478982
1.932129	1.479003
1.932617	1.478996
1.933105	1.478712
1.933594	1.479219
1.934082	1.479078
1.934570	1.479146
1.935059	1.478994
1.935547	1.478978
1.936035	1.478869
1.936523	1.478853
1.937012	1.478917
1.937500	1.478845
1.937988	1.479114
1.938477	1.478927
1.938965	1.478812
1.939453	1.478875
1.939941	1.478872
1.940430	1.478814
1.940918	1.478584
1.941406	1.478858
1.941895	1.478702
1.942383	1.478838
1.942871	1.479081
1.943359	1.479086
1.943848	1.479070
1.944336	1.479117
1.944824	1.479244
1.945312	1.478849
1.945801	1.479060
1.946289	1.479003
1.946777	1.479033
1.947266	1.479149
1.947754	1.479063
1.948242	1.479249
1.948730	1.479002
1.949219	1.479398
1.949707	1.479183
1.950195	1.478955
1.950684	1.479182
1.951172	1.479040
1.951660	1.479260
1.952148	1.479011
1.952637	1.479092
1.953125	1.479088
1.953613	1.478576
1.954102	1.478900
1.954590	1.478710
1.955078	1.478739
1.955566	1.478954
1.956055	1.478884
1.956543	1.478815
1.957031	1.478817
1.957520	1.478694
1.958008	1.479008
1.958496	1.479112
1.958984	1.478950
1.959473	1.478959
1.959961	1.479127
1.960449	1.479242
1.960937	1.478856
1.961426	1.479132
1.961914	1.479285
1.962402	1.479187
1.962891	1.479194
1.963379	1.479280
1.963867	1.479112
1.964355	1.479091
1.964844	1.479046
1.965332	1.479211
1.965820	1.478823
1.966309	1.479129
1.966797	1.479039
1.967285	1.478923
1.967773	1.478678
1.968262	1.478913
1.968750	1.478814
1.969238	1.479006
1.969727	1.478925
1.970215	1.478906
1.970703	1.478756
1.971191	1.478837
1.971680	1.478909
1.972168	1.478662
1.972656	1.478797
1.973145	1.478780
1.973633	1.478775
1.974121	1.478917
1.974609	1.478554
1.975098	1.478952
1.975586	1.478868
1.976074	1.478888
1.976562	1.479212
1.977051	1.479088
1.977539	1.479033
1.978027	1.479021
1.978516	1.478968
1.979004	1.479194
1.979492	1.479146
1.979980	1.479221
1.980469	1.479212
1.980957	1.479210
1.981445	1.479219
1.981934	1.479104
1.982422	1.479120
1.982910	1.479105
1.983398	1.479122
1.983887	1.479026
1.984375	1.478959
1.984863	1.478752
1.985352	1.478847
1.985840	1.479013
1.986328	1.479169
1.986816	1.478983
1.987305	1.478903
1.987793	1.478878
1.988281	1.478861
1.988770	1.478902
1.989258	1.479111
1.989746	1.479306
1.990234	1.479241
1.990723	1.479272
1.991211	1.479500
1.991699	1.479332
1.992187	1.479174
1.992676	1.479269
1.993164	1.479290
1.993652	1.479423
1.994141	1.479368
1.994629	1.479528
1.995117	1.479138
1.995605	1.479414
1.996094	1.479513
1.996582	1.479104
1.997070	1.479395
1.997559	1.479150
1.998047	1.479286
1.998535	1.479320
1.999023	1.479235
1.999512	1.479251
2.000000	1.479068
2.000488	1.479165
2.000977	1.479165
2.001465	1.479126
2.001953	1.479210
2.002441	1.479203
2.002930	1.479121
2.003418	1.479099
2.003906	1.479145
2.004395	1.479249
2.004883	1.479093
2.005371	1.479243
2.005859	1.479259
2.006348	1.479180
2.006836	1.479350
2.007324	1.479317
2.007812	1.479321
2.008301	1.479539
2.008789	1.479443
2.009277	1.479420
2.009766	1.479531
2.010254	1.479498
2.010742	1.479437
2.011230	1.479517
2.011719	1.479482
2.012207	1.479125
2.012695	1.479437
2.013184	1.479326
2.013672	1.479337
2.014160	1.479115
2.014648	1.479219
2.015137	1.479431
2.015625	1.478751
2.016113	1.479086
2.016602	1.478943
2.017090	1.479130
2.017578	1.478970
2.018066	1.479135
2.018555	1.479000
2.019043	1.478952
2.019531	1.479111
2.020020	1.479123
2.020508	1.479135
2.020996	1.479183
2.021484	1.479240
2.021973	1.479250
2.022461	1.479197
2.022949	1.479246
2.023437	1.479302
2.023926	1.479318
2.024414	1.479361
2.024902	1.479227
2.025391	1.479346
2.025879	1.479397
2.026367	1.479078
2.026855	1.479331
2.027344	1.479290
2.027832	1.479171
2.028320	1.479053
2.028809	1.479109
2.029297	1.479176
2.029785	1.479054
2.030273	1.479044
2.030762	1.479166
2.031250	1.479251
2.031738	1.479168
2.032227	1.478958
2.032715	1.478970
2.033203	1.479068
2.033691	1.479053
2.034180	1.479390
2.034668	1.478858
2.035156	1.478969
2.035645	1.479058
2.036133	1.479132
2.036621	1.479178
2.037109	1.479196
2.037598	1.479071
2.038086	1.479326
2.038574	1.479293
2.039062	1.479241
2.039551	1.479291
2.040039	1.479384
2.040527	1.479293
2.041016	1.479332
2.041504	1.479366
2.041992	1.479116
2.042480	1.479157
2.042969	1.479084
2.043457	1.479270
2.043945	1.479362
2.044434	1.479130
2.044922	1.479404
2.045410	1.479118
2.045898	1.479280
2.046387	1.479083
2.046875	1.478920
2.047363	1.479088
2.047852	1.478999
2.048340	1.479177
2.048828	1.479072
2.049316	1.479133
2.049805	1.479132
2.050293	1.479132
2.050781	1.479233
2.051270	1.479304
2.051758	1.479241
2.052246	1.479577
2.052734	1.479420
2.053223	1.479211
2.053711	1.479360
2.054199	1.479169
2.054687	1.479418
2.055176	1.479460
2.055664	1.479434
2.056152	1.479343
2.056641	1.479376
2.057129	1.479453
2.057617	1.479276
2.058105	1.479121
2.058594	1.479255
2.059082	1.479167
2.059570	1.479095
2.060059	1.478956
2.060547	1.479111
2.061035	1.478945
2.061523	1.479277
2.062012	1.478980
2.062500	1.479027
2.062988	1.478797
2.063477	1.478833
2.063965	1.478883
2.064453	1.478859
2.064941	1.478975
2.065430	1.479240
2.065918	1.479201
2.066406	1.479112
2.066895	1.479135
2.067383	1.479000
2.067871	1.479393
2.068359	1.479141
2.068848	1.479329
2.069336	1.479093
2.069824	1.479157
2.070312	1.479110
2.070801	1.479441
2.071289	1.479118
2.071777	1.479050
2.072266	1.479247
2.072754	1.479201
2.073242	1.479053
2.073730	1.478978
2.074219	1.479249
2.074707	1.478975
2.075195	1.479279
2.075684	1.479002
2.076172	1.478859
2.076660	1.478808
2.077148	1.479053
2.077637	1.478961
2.078125	1.479001
2.078613	1.479001
2.079102	1.479104
2.079590	1.479082
2.080078	1.478986
2.080566	1.478994
2.081055	1.479211
2.081543	1.479111
2.082031	1.479222
2.082520	1.479240
2.083008	1.479345
2.083496	1.479144
2.083984	1.479044
2.084473	1.479229
2.084961	1.479099
2.085449	1.479133
2.085937	1.479473
2.086426	1.479323
2.086914	1.479259
2.087402	1.479367
2.087891	1.478970
2.088379	1.479200
2.088867	1.479280
2.089355	1.478945
2.089844	1.479097
2.090332	1.479038
2.090820	1.479011
2.091309	1.479106
2.091797	1.479019
2.092285	1.478780
2.092773	1.478899
2.093262	1.478959
2.093750	1.478729
2.094238	1.478875
2.094727	1.478955
2.095215	1.478909
2.095703	1.478967
2.096191	1.478699
2.096680	1.479174
2.097168	1.479390
2.097656	1.479122
2.098145	1.479229
2.098633	1.479383
2.099121	1.479392
2.099609	1.479262
2.100098	1.479525
2.100586	1.479241
2.101074	1.479332
2.101562	1.479231
2.102051	1.479388
2.102539	1.479246
2.103027	1.479196
2.103516	1.479265
2.104004	1.479232
2.104492	1.479041
2.104980	1.479097
2.105469	1.479042
2.105957	1.479128
2.106445	1.479100
2.106934	1.478982
2.107422	1.479029
2.107910	1.478761
2.108398	1.479050
2.108887	1.478881
2.109375	1.478886
2.109863	1.479116
2.110352	1.478972
2.110840	1.479204
2.111328	1.479167
2.111816	1.479146
2.112305	1.479224
2.112793	1.479215
2.113281	1.479337
2.113770	1.479310
2.114258	1.479236
2.114746	1.479241
2.115234	1.479144
2.115723	1.479371
2.116211	1.479359
2.116699	1.479166
2.117187	1.479502
2.117676	1.479161
2.118164	1.479105
2.118652	1.479294
2.119141	1.479209
2.119629	1.479204
2.120117	1.479061
2.120605	1.479232
2.121094	1.479135
2.121582	1.478958
2.122070	1.479038
2.122559	1.478881
2.123047	1.478997
2.123535	1.478913
2.124023	1.479096
2.124512	1.479095
2.125000	1.479061
2.125488	1.479341
2.125977	1.478906
2.126465	1.479089
2.126953	1.478923
2.127441	1.479255
2.127930	1.479057
2.128418	1.479218
2.128906	1.479456
2.129395	1.479367
2.129883	1.479459
2.130371	1.479352
2.130859	1.479372
2.131348	1.479586
2.131836	1.479696
2.132324	1.479473
2.132812	1.479422
2.133301	1.479349
2.133789	1.479609
2.134277	1.478917
2.134766	1.479166
2.135254	1.479041
2.135742	1.479114
2.136230	1.479204
2.136719	1.479083
2.137207	1.479435
2.137695	1.479106
2.138184	1.479249
2.138672	1.478991
2.139160	1.479245
2.139648	1.479049
2.140137	1.479172
2.140625	1.479036
2.141113	1.479136
2.141602	1.479371
2.142090	1.479340
2.142578	1.479413
2.143066	1.479312
2.143555	1.479636
2.144043	1.479398
2.144531	1.479229
2.145020	1.479326
2.145508	1.479211
2.145996	1.479405
2.146484	1.479312
2.146973	1.479576
2.147461	1.479719
2.147949	1.479312
2.148437	1.479453
2.148926	1.479175
2.149414	1.479177
2.149902	1.479081
2.150391	1.479274
2.150879	1.479044
2.151367	1.479208
2.151855	1.479264
2.152344	1.479128
2.152832	1.479115
2.153320	1.478927
2.153809	1.479066
2.154297	1.479100
2.154785	1.478963
2.155273	1.478996
2.155762	1.479108
2.156250	1.479344
2.156738	1.479114
2.157227	1.479080
2.157715	1.479002
2.158203	1.479161
2.158691	1.479298
2.159180	1.478904
2.159668	1.479429
2.160156	1.479324
2.160645	1.479384
2.161133	1.479536
2.161621	1.479341
2.162109	1.479554
2.162598	1.479166
2.163086	1.479195
2.163574	1.479320
2.164062	1.479301
2.164551	1.479404
2.165039	1.478991
2.165527	1.479416
2.166016	1.479078
2.166504	1.479134
2.166992	1.478916
2.167480	1.478873
2.167969	1.479184
2.168457	1.479015
2.168945	1.479141
2.169434	1.479064
2.169922	1.478979
2.170410	1.479058
2.170898	1.479151
2.171387	1.479125
2.171875	1.479086
2.172363	1.479301
2.172852	1.479213
2.173340	1.479095
2.173828	1.479306
2.174316	1.479138
2.174805	1.479480
2.175293	1.479102
2.175781	1.479376
2.176270	1.479298
2.176758	1.479337
2.177246	1.479265
2.177734	1.479210
2.178223	1.479391
2.178711	1.479409
2.179199	1.479199
2.179687	1.479481
2.180176	1.479308
2.180664	1.479282
2.181152	1.479218
2.181641	1.479229
2.182129	1.479284
2.182617	1.479013
2.183105	1.479171
2.183594	1.479253
2.184082	1.479189
2.184570	1.479155
2.185059	1.478998
2.185547	1.479125
2.186035	1.479124
2.186523	1.479391
2.187012	1.479221
2.187500	1.479108
2.187988	1.479408
2.188477	1.479266
2.188965	1.479410
2.189453	1.479545
2.189941	1.479372
2.190430	1.479500
2.190918	1.479238
2.191406	1.479728
2.191895	1.479586
2.192383	1.479365
2.192871	1.479595
2.193359	1.479599
2.193848	1.479510
2.194336	1.479413
2.194824	1.479435
2.195312	1.479326
2.195801	1.479197
2.196289	1.479503
2.196777	1.479299
2.197266	1.478961
2.197754	1.479147
2.198242	1.479171
2.198730	1.479106
2.199219	1.479154
2.199707	1.479118
2.200195	1.478939
2.200684	1.479130
2.201172	1.479259
2.201660	1.479267
2.202148	1.479026
2.202637	1.479318
2.203125	1.479341
2.203613	1.479296
2.204102	1.479334
2.204590	1.479341
2.205078	1.479327
2.205566	1.479351
2.206055	1.479336
2.206543	1.479382
2.207031	1.479545
2.207520	1.479372
2.208008	1.479381
2.208496	1.479627
2.208984	1.479392
2.209473	1.479571
2.209961	1.479229
2.210449	1.479393
2.210937	1.479434
2.211426	1.479268
2.211914	1.479373
2.212402	1.479417
2.212891	1.479373
2.213379	1.479220
2.213867	1.479475
2.214355	1.479175
2.214844	1.479107
2.215332	1.478988
2.215820	1.479145
2.216309	1.479143
2.216797	1.479214
2.217285	1.479280
2.217773	1.479114
2.218262	1.479249
2.218750	1.479381
2.219238	1.479205
2.219727	1.479260
2.220215	1.479440
2.220703	1.479402
2.221191	1.479449
2.221680	1.479556
2.222168	1.479656
2.222656	1.479484
2.223145	1.479559
2.223633	1.479527
2.224121	1.479405
2.224609	1.479457
2.225098	1.479279
2.225586	1.479229
2.226074	1.479302
2.226562	1.479040
2.227051	1.479352
2.227539	1.479334
2.228027	1.479113
2.228516	1.479114
2.229004	1.479272
2.229492	1.479267
2.229980	1.478973
2.230469	1.478988
2.230957	1.479205
2.231445	1.479110
2.231934	1.479230
2.232422	1.479209
2.232910	1.479181
2.233398	1.479356
2.233887	1.479398
2.234375	1.479273
2.234863	1.479267
2.235352	1.479213
2.235840	1.479260
2.236328	1.479219
2.236816	1.479097
2.237305	1.479418
2.237793	1.479257
2.238281	1.479396
2.238770	1.479496
2.239258	1.479462
2.239746	1.479340
2.240234	1.479164
2.240723	1.479038
2.241211	1.479259
2.241699	1.479273
2.242187	1.479305
2.242676	1.479208
2.243164	1.479246
2.243652	1.479269
2.244141	1.479204
2.244629	1.479173
2.245117	1.478956
2.245605	1.479174
2.246094	1.479059
2.246582	1.479152
2.247070	1.479105
2.247559	1.479176
2.248047	1.479022
2.248535	1.479044
2.249023	1.479196
2.249512	1.479118
2.250000	1.479208
2.250488	1.479166
2.250977	1.479496
2.251465	1.479369
2.251953	1.479221
2.252441	1.479432
2.252930	1.479230
2.253418	1.479377
2.253906	1.479397
2.254395	1.479284
2.254883	1.479245
2.255371	1.479032
2.255859	1.479035
2.256348	1.478994
2.256836	1.479053
2.257324	1.479257
2.257812	1.479091
2.258301	1.478903
2.258789	1.479010
2.259277	1.479078
2.259766	1.478699
2.260254	1.478658
2.260742	1.478872
2.261230	1.478973
2.261719	1.478988
2.262207	1.478996
2.262695	1.479100
2.263184	1.479112
2.263672	1.479009
2.264160	1.479117
2.264648	1.478963
2.265137	1.478797
2.265625	1.478996
2.266113	1.479014
2.266602	1.479219
2.267090	1.478922
2.267578	1.479041
2.268066	1.479202
2.268555	1.478905
2.269043	1.479325
2.269531	1.478970
2.270020	1.479074
2.270508	1.478989
2.270996	1.479110
2.271484	1.479252
2.271973	1.478735
2.272461	1.478913
2.272949	1.479134
2.273437	1.478946
2.273926	1.478857
2.274414	1.478809
2.274902	1.478772
2.275391	1.478892
2.275879	1.479210
2.276367	1.478702
2.276855	1.478874
2.277344	1.478775
2.277832	1.478915
2.278320	1.478903
2.278809	1.478940
2.279297	1.479129
2.279785	1.478906
2.280273	1.479060
2.280762	1.479132
2.281250	1.479083
2.281738	1.479287
2.282227	1.478843
2.282715	1.479392
2.283203	1.479304
2.283691	1.479301
2.284180	1.479323
2.284668	1.479170
2.285156	1.479206
2.285645	1.479075
2.286133	1.479032
2.286621	1.479215
2.287109	1.479071
2.287598	1.478962
2.288086	1.478959
2.288574	1.478986
2.289062	1.479057
2.289551	1.478930
2.290039	1.478854
2.290527	1.479000
2.291016	1.478936
2.291504	1.479220
2.291992	1.478990
2.292480	1.479072
2.292969	1.479157
2.293457	1.479121
2.293945	1.479205
2.294434	1.479121
2.294922	1.479110
2.295410	1.479265
2.295898	1.479190
2.296387	1.479002
2.296875	1.479127
2.297363	1.479409
2.297852	1.479318
2.298340	1.479388
2.298828	1.479329
2.299316	1.479483
2.299805	1.479269
2.300293	1.479090
2.300781	1.479276
2.301270	1.479030
2.301758	1.479423
2.302246	1.479184
2.302734	1.479369
2.303223	1.479403
2.303711	1.479182
2.304199	1.479333
2.304687	1.479226
2.305176	1.479090
2.305664	1.478994
2.306152	1.479086
2.306641	1.479116
2.307129	1.478989
2.307617	1.479088
2.308105	1.479141
2.308594	1.479291
2.309082	1.479205
2.309570	1.479370
2.310059	1.479168
2.310547	1.479241
2.311035	1.479210
2.311523	1.479370
2.312012	1.479337
2.312500	1.479408
2.312988	1.479499
2.313477	1.479487
2.313965	1.479502
2.314453	1.479434
2.314941	1.479309
2.315430	1.479174
2.315918	1.479424
2.316406	1.479383
2.316895	1.479653
2.317383	1.479291
2.317871	1.479345
2.318359	1.479114
2.318848	1.479290
2.319336	1.479216
2.319824	1.479121
2.320312	1.478964
2.320801	1.479199
2.321289	1.479238
2.321777	1.479282
2.322266	1.479057
2.322754	1.479249
2.323242	1.479357
2.323730	1.479293
2.324219	1.479348
2.324707	1.479197
2.325195	1.479328
2.325684	1.479389
2.326172	1.479483
2.326660	1.479364
2.327148	1.479454
2.327637	1.479473
2.328125	1.479313
2.328613	1.479705
2.329102	1.479493
2.329590	1.479501
2.330078	1.479548
2.330566	1.479406
2.331055	1.479671
2.331543	1.479503
2.332031	1.479219
2.332520	1.479143
2.333008	1.479418
2.333496	1.479293
2.333984	1.479241
2.334473	1.479125
2.334961	1.478922
2.335449	1.478934
2.335937	1.479424
2.336426	1.478956
2.336914	1.478872
2.337402	1.479057
2.337891	1.479293
2.338379	1.479198
2.338867	1.479265
2.339355	1.479172
2.339844	1.479147
2.340332	1.479324
2.340820	1.479304
2.341309	1.479544
2.341797	1.479477
2.342285	1.479453
2.342773	1.479442
2.343262	1.479525
2.343750	1.479417
2.344238	1.479528
2.344727	1.479385
2.345215	1.479626
2.345703	1.479280
2.346191	1.479279
2.346680	1.479121
2.347168	1.479290
2.347656	1.479149
2.348145	1.479131
2.348633	1.479293
2.349121	1.479095
2.349609	1.479085
2.350098	1.479123
2.350586	1.479124
2.351074	1.479162
2.351562	1.479221
2.352051	1.479108
2.352539	1.479171
2.353027	1.479215
2.353516	1.479122
2.354004	1.479288
2.354492	1.479186
2.354980	1.479313
2.355469	1.479332
2.355957	1.479338
2.356445	1.479240
2.356934	1.479408
2.357422	1.479288
2.357910	1.479388
2.358398	1.479514
2.358887	1.479439
2.359375	1.479515
2.359863	1.479409
2.360352	1.479497
2.360840	1.479390
2.361328	1.479484
2.361816	1.479399
2.362305	1.479274
2.362793	1.479173
2.363281	1.479266
2.363770	1.479244
2.364258	1.479247
2.364746	1.478991
2.365234	1.478994
2.365723	1.479275
2.366211	1.479163
2.366699	1.479155
2.367187	1.479179
2.367676	1.478974
2.368164	1.478978
2.368652	1.479307
2.369141	1.479332
2.369629	1.479198
2.370117	1.479318
2.370605	1.479628
2.371094	1.479465
2.371582	1.479324
2.372070	1.479573
2.372559	1.479252
2.373047	1.479612
2.373535	1.479576
2.374023	1.479526
2.374512	1.479514
2.375000	1.479534
2.375488	1.479454
2.375977	1.479583
2.376465	1.479331
2.376953	1.479589
2.377441	1.479415
2.377930	1.479437
2.378418	1.479357
2.378906	1.479331
2.379395	1.479251
2.379883	1.479216
2.380371	1.479171
2.380859	1.479015
2.381348	1.479298
2.381836	1.479150
2.382324	1.479378
2.382812	1.479450
2.383301	1.479280
2.383789	1.479384
2.384277	1.479529
2.384766	1.479285
2.385254	1.479379
2.385742	1.479381
2.386230	1.479199
2.386719	1.479638
2.387207	1.479374
2.387695	1.479643
2.388184	1.479571
2.388672	1.479659
2.389160	1.479499
2.389648	1.479754
2.390137	1.479512
2.390625	1.479657
2.391113	1.479611
2.391602	1.479681
2.392090	1.479389
2.392578	1.479484
2.393066	1.479381
2.393555	1.479341
2.394043	1.479362
2.394531	1.479221
2.395020	1.479409
2.395508	1.479288
2.395996	1.479396
2.396484	1.479529
2.396973	1.479270
2.397461	1.479276
2.397949	1.479367
2.398437	1.479367
2.398926	1.479420
2.399414	1.479445
2.399902	1.479408
2.400391	1.479492
2.400879	1.479600
2.401367	1.479652
2.401855	1.479575
2.402344	1.479775
2.402832	1.479807
2.403320	1.479262
2.403809	1.479716
2.404297	1.479717
2.404785	1.479679
2.405273	1.479717
2.405762	1.479560
2.406250	1.479969
2.406738	1.479483
2.407227	1.479301
2.407715	1.479477
2.408203	1.479295
2.408691	1.479490
2.409180	1.479359
2.409668	1.479489
2.410156	1.479338
2.410645	1.479367
2.411133	1.479347
2.411621	1.479506
2.412109	1.479352
2.412598	1.479194
2.413086	1.479344
2.413574	1.479421
2.414062	1.479353
2.414551	1.479166
2.415039	1.479466
2.415527	1.479398
2.416016	1.479454
2.416504	1.479581
2.416992	1.479533
2.417480	1.479572
2.417969	1.479717
2.418457	1.479514
2.418945	1.479586
2.419434	1.479320
2.419922	1.479592
2.420410	1.479567
2.420898	1.479493
2.421387	1.479539
2.421875	1.479535
2.422363	1.479249
2.422852	1.479350
2.423340	1.479281
2.423828	1.479349
2.424316	1.479092
2.424805	1.479086
2.425293	1.479312
2.425781	1.479127
2.426270	1.479202
2.426758	1.479189
2.427246	1.479197
2.427734	1.479226
2.428223	1.478989
2.428711	1.479295
2.429199	1.479247
2.429687	1.479155
2.430176	1.479421
2.430664	1.479231
2.431152	1.479328
2.431641	1.479240
2.432129	1.479205
2.432617	1.479246
2.433105	1.479272
2.433594	1.479266
2.434082	1.479298
2.434570	1.479169
2.435059	1.479351
2.435547	1.479377
2.436035	1.479298
2.436523	1.479277
2.437012	1.478845
2.437500	1.479283
2.437988	1.479186
2.438477	1.479143
2.438965	1.479256
2.439453	1.479002
2.439941	1.478978
2.440430	1.478898
2.440918	1.478866
2.441406	1.478992
2.441895	1.478674
2.442383	1.479171
2.442871	1.478993
2.443359	1.479129
2.443848	1.479027
2.444336	1.478893
2.444824	1.479044
2.445312	1.479061
2.445801	1.479063
2.446289	1.479511
2.446777	1.479020
2.447266	1.479158
2.447754	1.479058
2.448242	1.478885
2.448730	1.479442
2.449219	1.479257
2.449707	1.479245
2.450195	1.479299
2.450684	1.479390
2.451172	1.479298
2.451660	1.479438
2.452148	1.479291
2.452637	1.479417
2.453125	1.479072
2.453613	1.479051
2.454102	1.479127
2.454590	1.478801
2.455078	1.479129
2.455566	1.478914
2.456055	1.479136
2.456543	1.479206
2.457031	1.478936
2.457520	1.478814
2.458008	1.479221
2.458496	1.479174
2.458984	1.479005
2.459473	1.479145
2.459961	1.479214
2.460449	1.479084
2.460937	1.479130
2.461426	1.479365
2.461914	1.479274
2.462402	1.479313
2.462891	1.479252
2.463379	1.479338
2.463867	1.479232
2.464355	1.479498
2.464844	1.479274
2.465332	1.479468
2.465820	1.479599
2.466309	1.479335
2.466797	1.479350
2.467285	1.478995
2.467773	1.479206
2.468262	1.479168
2.468750	1.479159
2.469238	1.479238
2.469727	1.479170
2.470215	1.479011
2.470703	1.478999
2.471191	1.478965
2.471680	1.479248
2.472168	1.479017
2.472656	1.479142
2.473145	1.479188
2.473633	1.479008
2.474121	1.478955
2.474609	1.478985
2.475098	1.479057
2.475586	1.479238
2.476074	1.479066
2.476562	1.479357
2.477051	1.478895
2.477539	1.479154
2.478027	1.479331
2.478516	1.479366
2.479004	1.479418
2.479492	1.479200
2.479980	1.479557
2.480469	1.479394
2.480957	1.479099
2.481445	1.479304
2.481934	1.479171
2.482422	1.479223
2.482910	1.479386
2.483398	1.479282
2.483887	1.479092
2.484375	1.479212
2.484863	1.479143
2.485352	1.479132
2.485840	1.478949
2.486328	1.479175
2.486816	1.479031
2.487305	1.478978
2.487793	1.478968
2.488281	1.478853
2.488770	1.478901
2.489258	1.478897
2.489746	1.479132
2.490234	1.479212
2.490723	1.479193
2.491211	1.479116
2.491699	1.479314
2.492187	1.479250
2.492676	1.478937
2.493164	1.479377
2.493652	1.479208
2.494141	1.479265
2.494629	1.479160
2.495117	1.479570
2.495605	1.479434
2.496094	1.479390
2.496582	1.479464
2.497070	1.479165
2.497559	1.479119
2.498047	1.479306
2.498535	1.479399
2.499023	1.479072
2.499512	1.479100
2.500000	1.479325
2.500488	1.479099
2.500977	1.478775
2.501465	1.479025
2.501953	1.478826
2.502441	1.478935
2.502930	1.478851
2.503418	1.479029
2.503906	1.479017
2.504395	1.478975
2.504883	1.478996
2.505371	1.478704
2.505859	1.479067
2.506348	1.478781
2.506836	1.478986
2.507324	1.479282
2.507812	1.479044
2.508301	1.479241
2.508789	1.479241
2.509277	1.479171
2.509766	1.479225
2.510254	1.479097
2.510742	1.479154
2.511230	1.479392
2.511719	1.479324
2.512207	1.479058
2.512695	1.479092
2.513184	1.479145
2.513672	1.478818
2.514160	1.478756
2.514648	1.478507
2.515137	1.478728
2.515625	1.478914
2.516113	1.478944
2.516602	1.478864
2.517090	1.478762
2.517578	1.478685
2.518066	1.478685
2.518555	1.478727
2.519043	1.478720
2.519531	1.478694
2.520020	1.478687
2.520508	1.478897
2.520996	1.479035
2.521484	1.478895
2.521973	1.479104
2.522461	1.478960
2.522949	1.479102
2.523437	1.479105
2.523926	1.478941
2.524414	1.479047
2.524902	1.478883
2.525391	1.479005
2.525879	1.479006
2.526367	1.479071
2.526855	1.478956
2.527344	1.479047
2.527832	1.479069
2.528320	1.478848
2.528809	1.478795
2.529297	1.478847
2.529785	1.478987
2.530273	1.478799
2.530762	1.478850
2.531250	1.478710
2.531738	1.478689
2.532227	1.478772
2.532715	1.478350
2.533203	1.478632
2.533691	1.478503
2.534180	1.478599
2.534668	1.478406
2.535156	1.478740
2.535645	1.478329
2.536133	1.478840
2.536621	1.478972
2.537109	1.478931
2.537598	1.479057
2.538086	1.479021
2.538574	1.478948
2.539062	1.478980
2.539551	1.479102
2.540039	1.479081
2.540527	1.479131
2.541016	1.479064
2.541504	1.479080
2.541992	1.479143
2.542480	1.479028
2.542969	1.479075
2.543457	1.479107
2.543945	1.478850
2.544434	1.478986
2.544922	1.478783
2.545410	1.478686
2.545898	1.478643
2.546387	1.478750
2.546875	1.478770
2.547363	1.478750
2.547852	1.478526
2.548340	1.478680
2.548828	1.478609
2.549316	1.478777
2.549805	1.478680
2.550293	1.478680
2.550781	1.478738
2.551270	1.478837
2.551758	1.478985
2.552246	1.478676
2.552734	1.478877
2.553223	1.478886
2.553711	1.479197
2.554199	1.479048
2.554687	1.479330
2.555176	1.479160
2.555664	1.479033
2.556152	1.479027
2.556641	1.479096
2.557129	1.479137
2.557617	1.479211
2.558105	1.479117
2.558594	1.479077
2.559082	1.479089
2.559570	1.478955
2.560059	1.478933
2.560547	1.478776
2.561035	1.478943
2.561523	1.478956
2.562012	1.478704
2.562500	1.478880
2.562988	1.478832
2.563477	1.478743
2.563965	1.478743
2.564453	1.478880
2.564941	1.478782
2.565430	1.478692
2.565918	1.479014
2.566406	1.478641
2.566895	1.479036
2.567383	1.478869
2.567871	1.478957
2.568359	1.479053
2.568848	1.479186
2.569336	1.478955
2.569824	1.479254
2.570312	1.479205
2.570801	1.479127
2.571289	1.479262
2.571777	1.479303
2.572266	1.479234
2.572754	1.478952
2.573242	1.479150
2.573730	1.479221
2.574219	1.479115
2.574707	1.478964
2.575195	1.478908
2.575684	1.478689
2.576172	1.478903
2.576660	1.479069
2.577148	1.478902
2.577637	1.478573
2.578125	1.478746
2.578613	1.478898
2.579102	1.478905
2.579590	1.478784
2.580078	1.478729
2.580566	1.478745
2.581055	1.478795
2.581543	1.479026
2.582031	1.479155
2.582520	1.478838
2.583008	1.479367
2.583496	1.479229
2.583984	1.479135
2.584473	1.479064
2.584961	1.479188
2.585449	1.479245
2.585937	1.479548
2.586426	1.479391
2.586914	1.479177
2.587402	1.479060
2.587891	1.479301
2.588379	1.479284
2.588867	1.479127
2.589355	1.479161
2.589844	1.479229
2.590332	1.479047
2.590820	1.479071
2.591309	1.479197
2.591797	1.478987
2.592285	1.479002
2.592773	1.478762
2.593262	1.478772
2.593750	1.478952
2.594238	1.478676
2.594727	1.478808
2.595215	1.478741
2.595703	1.479049
2.596191	1.479198
2.596680	1.478955
2.597168	1.479025
2.597656	1.478989
2.598145	1.479025
2.598633	1.479110
2.599121	1.479138
2.599609	1.479329
2.600098	1.479188
2.600586	1.479125
2.601074	1.479238
2.601562	1.479154
2.602051	1.479381
2.602539	1.479061
2.603027	1.479402
2.603516	1.479296
2.604004	1.479122
2.604492	1.479142
2.604980	1.478989
2.605469	1.479060
2.605957	1.478778
2.606445	1.479182
2.606934	1.479147
2.607422	1.478967
2.607910	1.478914
2.608398	1.478748
2.608887	1.478975
2.609375	1.478814
2.609863	1.478997
2.610352	1.478802
2.610840	1.478939
2.611328	1.478714
2.611816	1.479070
2.612305	1.478966
2.612793	1.478902
2.613281	1.479000
2.613770	1.479078
2.614258	1.479015
2.614746	1.479033
2.615234	1.478974
2.615723	1.479084
2.616211	1.478990
2.616699	1.479031
2.617187	1.479019
2.617676	1.479238
2.618164	1.479217
2.618652	1.479243
2.619141	1.479185
2.619629	1.479152
2.620117	1.478965
2.620605	1.479063
2.621094	1.479032
2.621582	1.479107
2.622070	1.478900
2.622559	1.478889
2.623047	1.478698
2.623535	1.478857
2.624023	1.478890
2.624512	1.478684
2.625000	1.478864
2.625488	1.478811
2.625977	1.478865
2.626465	1.478826
2.626953	1.478693
2.627441	1.478872
2.627930	1.478961
2.628418	1.478920
2.628906	1.478884
2.629395	1.479206
2.629883	1.479006
2.630371	1.479156
2.630859	1.479042
2.631348	1.479351
2.631836	1.479263
2.632324	1.478963
2.632812	1.479229
2.633301	1.478963
2.633789	1.479122
2.634277	1.479013
2.634766	1.479036
2.635254	1.479207
2.635742	1.478876
2.636230	1.478869
2.636719	1.479150
2.637207	1.478902
2.637695	1.479033
2.638184	1.478747
2.638672	1.478851
2.639160	1.478803
2.639648	1.478582
2.640137	1.478789
2.640625	1.478862
2.641113	1.478989
2.641602	1.478990
2.642090	1.478940
2.642578	1.479274
2.643066	1.478794
2.643555	1.478913
2.644043	1.478999
2.644531	1.479033
2.645020	1.479104
2.645508	1.479059
2.645996	1.479440
2.646484	1.479152
2.646973	1.479134
2.647461	1.479212
2.647949	1.478937
2.648437	1.479281
2.648926	1.479318
2.649414	1.479346
2.649902	1.479233
2.650391	1.479084
2.650879	1.479400
2.651367	1.478889
2.651855	1.479080
2.652344	1.478710
2.652832	1.478836
2.653320	1.478826
2.653809	1.478915
2.654297	1.479188
2.654785	1.478784
2.655273	1.478839
2.655762	1.478859
2.656250	1.478685
2.656738	1.478800
2.657227	1.478876
2.657715	1.479075
2.658203	1.479113
2.658691	1.478985
2.659180	1.479049
2.659668	1.478976
2.660156	1.479153
2.660645	1.479056
2.661133	1.479138
2.661621	1.479041
2.662109	1.479108
2.662598	1.479108
2.663086	1.479387
2.663574	1.479107
2.664062	1.479124
2.664551	1.479215
2.665039	1.478684
2.665527	1.478998
2.666016	1.478927
2.666504	1.478864
2.666992	1.478969
2.667480	1.478820
2.667969	1.479199
2.668457	1.478684
2.668945	1.478544
2.669434	1.478746
2.669922	1.478620
2.670410	1.478716
2.670898	1.478665
2.671387	1.478833
2.671875	1.478967
2.672363	1.478704
2.672852	1.478896
2.673340	1.478821
2.673828	1.479037
2.674316	1.478964
2.674805	1.478897
2.675293	1.478920
2.675781	1.479107
2.676270	1.478725
2.676758	1.479057
2.677246	1.479061
2.677734	1.479327
2.678223	1.479290
2.678711	1.478878
2.679199	1.479176
2.679687	1.478853
2.680176	1.478832
2.680664	1.479007
2.681152	1.479049
2.681641	1.479107
2.682129	1.478974
2.682617	1.478991
2.683105	1.478975
2.683594	1.478724
2.684082	1.478818
2.684570	1.478918
2.685059	1.478796
2.685547	1.478901
2.686035	1.478967
2.686523	1.478765
2.687012	1.478944
2.687500	1.478822
2.687988	1.479087
2.688477	1.478953
2.688965	1.478973
2.689453	1.478980
2.689941	1.478871
2.690430	1.479138
2.690918	1.479141
2.691406	1.479004
2.691895	1.479269
2.692383	1.479159
2.692871	1.479072
2.693359	1.479369
2.693848	1.479140
2.694336	1.479147
2.694824	1.479031
2.695312	1.478783
2.695801	1.479050
2.696289	1.478655
2.696777	1.479005
2.697266	1.479036
2.697754	1.478936
2.698242	1.478899
2.698730	1.478792
2.699219	1.478856
2.699707	1.478737
2.700195	1.478662
2.700684	1.478911
2.701172	1.478747
2.701660	1.478902
2.702148	1.478701
2.702637	1.478718
2.703125	1.478745
2.703613	1.478971
2.704102	1.478684
2.704590	1.478732
2.705078	1.478772
2.705566	1.478841
2.706055	1.478677
2.706543	1.478769
2.707031	1.479023
2.707520	1.478878
2.708008	1.478989
2.708496	1.478911
2.708984	1.479135
2.709473	1.478826
2.709961	1.478941
2.710449	1.478845
2.710937	1.478805
2.711426	1.478755
2.711914	1.478714
2.712402	1.478560
2.712891	1.478606
2.713379	1.478530
2.713867	1.478534
2.714355	1.478587
2.714844	1.478405
2.715332	1.478616
2.715820	1.478524
2.716309	1.478631
2.716797	1.478819
2.717285	1.478783
2.717773	1.478545
2.718262	1.478651
2.718750	1.478732
2.719238	1.478850
2.719727	1.478636
2.720215	1.478964
2.720703	1.478896
2.721191	1.479077
2.721680	1.479239
2.722168	1.478971
2.722656	1.479201
2.723145	1.479049
2.723633	1.478950
2.724121	1.478992
2.724609	1.478877
2.725098	1.479013
2.725586	1.478852
2.726074	1.478990
2.726562	1.478885
2.727051	1.478518
2.727539	1.478838
2.728027	1.478856
2.728516	1.478891
2.729004	1.478681
2.729492	1.478826
2.729980	1.479067
2.730469	1.478476
2.730957	1.478571
2.731445	1.478651
2.731934	1.478714
2.732422	1.478579
2.732910	1.478853
2.733398	1.479009
2.733887	1.478925
2.734375	1.478705
2.734863	1.479068
2.735352	1.478841
2.735840	1.478930
2.736328	1.478939
2.736816	1.479204
2.737305	1.479158
2.737793	1.479157
2.738281	1.479255
2.738770	1.478991
2.739258	1.479070
2.739746	1.479157
2.740234	1.479111
2.740723	1.479117
2.741211	1.479030
2.741699	1.479261
2.742187	1.478904
2.742676	1.478877
2.743164	1.478911
2.743652	1.478718
2.744141	1.478895
2.744629	1.478723
2.745117	1.478888
2.745605	1.478854
2.746094	1.478770
2.746582	1.478544
2.747070	1.478872
2.747559	1.478851
2.748047	1.478450
2.748535	1.478862
2.749023	1.479045
2.749512	1.478936
2.750000	1.479157
2.750488	1.479126
2.750977	1.479105
2.751465	1.479107
2.751953	1.479123
2.752441	1.479118
2.752930	1.479137
2.753418	1.479014
2.753906	1.479298
2.754395	1.479132
2.754883	1.478977
2.755371	1.478931
2.755859	1.478992
2.756348	1.478532
2.756836	1.479042
2.757324	1.478896
2.757812	1.478833
2.758301	1.478878
2.758789	1.478549
2.759277	1.478639
2.759766	1.478818
2.760254	1.478794
2.760742	1.478570
2.761230	1.478753
2.761719	1.478967
2.762207	1.478925
2.762695	1.478919
2.763184	1.478783
2.763672	1.478790
2.764160	1.478777
2.764648	1.478769
2.765137	1.478886
2.765625	1.478762
2.766113	1.478891
2.766602	1.479000
2.767090	1.478880
2.767578	1.478909
2.768066	1.479072
2.768555	1.479064
2.769043	1.479168
2.769531	1.479028
2.770020	1.479127
2.770508	1.478885
2.770996	1.478876
2.771484	1.478928
2.771973	1.478810
2.772461	1.479135
2.772949	1.479044
2.773437	1.478844
2.773926	1.478861
2.774414	1.478662
2.774902	1.478823
2.775391	1.478709
2.775879	1.478586
2.776367	1.478913
2.776855	1.478867
2.777344	1.478831
2.777832	1.478905
2.778320	1.478961
2.778809	1.478744
2.779297	1.478859
2.779785	1.478851
2.780273	1.478913
2.780762	1.479145
2.781250	1.479080
2.781738	1.479256
2.782227	1.479293
2.782715	1.479157
2.783203	1.479210
2.783691	1.479005
2.784180	1.479101
2.784668	1.479096
2.785156	1.478975
2.785645	1.479099
2.786133	1.479201
2.786621	1.479195
2.787109	1.478980
2.787598	1.479094
2.788086	1.478730
2.788574	1.478955
2.789062	1.479046
2.789551	1.478866
2.790039	1.478695
2.790527	1.478789
2.791016	1.478742
2.791504	1.478952
2.791992	1.478940
2.792480	1.478861
2.792969	1.478894
2.793457	1.478839
2.793945	1.478778
2.794434	1.478745
2.794922	1.478891
2.795410	1.478800
2.795898	1.478943
2.796387	1.478999
2.796875	1.478955
2.797363	1.479021
2.797852	1.479080
2.798340	1.479075
2.798828	1.479005
2.799316	1.479041
2.799805	1.478890
2.800293	1.478985
2.800781	1.478899
2.801270	1.478882
2.801758	1.479153
2.802246	1.479084
2.802734	1.478920
2.803223	1.478886
2.803711	1.478969
2.804199	1.478651
2.804687	1.478624
2.805176	1.478657
2.805664	1.478616
2.806152	1.478708
2.806641	1.478541
2.807129	1.478830
2.807617	1.478808
2.808105	1.478554
2.808594	1.478723
2.809082	1.478521
2.809570	1.478787
2.810059	1.478774
2.810547	1.478859
2.811035	1.478933
2.811523	1.479126
2.812012	1.479051
2.812500	1.478760
2.812988	1.478809
2.813477	1.478831
2.813965	1.479055
2.814453	1.478818
2.814941	1.478779
2.815430	1.479115
2.815918	1.478941
2.816406	1.478724
2.816895	1.479052
2.817383	1.478805
2.817871	1.479082
2.818359	1.478854
2.818848	1.478709
2.819336	1.478780
2.819824	1.478567
2.820312	1.478629
2.820801	1.478783
2.821289	1.478643
2.821777	1.478753
2.822266	1.478710
2.822754	1.478995
2.823242	1.478618
2.823730	1.478573
2.824219	1.478839
2.824707	1.478750
2.825195	1.478698
2.825684	1.478845
2.826172	1.479010
2.826660	1.478995
2.827148	1.478936
2.827637	1.478949
2.828125	1.478963
2.828613	1.478967
2.829102	1.479179
2.829590	1.479141
2.830078	1.479241
2.830566	1.479208
2.831055	1.479188
2.831543	1.479352
2.832031	1.479207
2.832520	1.478911
2.833008	1.478975
2.833496	1.479201
2.833984	1.479150
2.834473	1.478967
2.834961	1.478836
2.835449	1.479002
2.835937	1.478805
2.836426	1.478967
2.836914	1.478870
2.837402	1.478927
2.837891	1.478689
2.838379	1.478707
2.838867	1.478978
2.839355	1.478869
2.839844	1.478800
2.840332	1.479053
2.840820	1.478919
2.841309	1.479048
2.841797	1.479168
2.842285	1.479106
2.842773	1.479195
2.843262	1.479464
2.843750	1.479382
2.844238	1.479169
2.844727	1.479052
2.845215	1.479265
2.845703	1.479288
2.846191	1.479178
2.846680	1.479223
2.847168	1.479182
2.847656	1.479057
2.848145	1.479080
2.848633	1.478923
2.849121	1.479155
2.849609	1.478975
2.850098	1.478825
2.850586	1.479078
2.851074	1.478736
2.851562	1.479125
2.852051	1.478822
2.852539	1.478909
2.853027	1.479041
2.853516	1.478803
2.854004	1.478941
2.854492	1.478906
2.854980	1.478943
2.855469	1.479082
2.855957	1.479050
2.856445	1.479405
2.856934	1.478812
2.857422	1.478863
2.857910	1.479182
2.858398	1.479107
2.858887	1.479141
2.859375	1.479012
2.859863	1.479409
2.860352	1.479313
2.860840	1.478978
2.861328	1.479113
2.861816	1.479079
2.862305	1.479057
2.862793	1.479032
2.863281	1.479198
2.863770	1.478998
2.864258	1.479041
2.864746	1.478930
2.865234	1.478807
2.865723	1.478701
2.866211	1.478936
2.866699	1.478935
2.867187	1.479028
2.867676	1.478902
2.868164	1.478871
2.868652	1.478968
2.869141	1.479066
2.869629	1.478831
2.870117	1.478936
2.870605	1.478953
2.871094	1.479084
2.871582	1.479171
2.872070	1.478983
2.872559	1.479214
2.873047	1.479162
2.873535	1.479269
2.874023	1.479261
2.874512	1.479266
2.875000	1.479003
2.875488	1.479120
2.875977	1.479348
2.876465	1.479304
2.876953	1.479412
2.877441	1.479323
2.877930	1.479226
2.878418	1.479467
2.878906	1.478902
2.879395	1.479127
2.879883	1.479254
2.880371	1.479048
2.880859	1.479119
2.881348	1.479044
2.881836	1.479502
2.882324	1.479136
2.882812	1.478981
2.883301	1.479235
2.883789	1.478867
2.884277	1.478983
2.884766	1.478933
2.885254	1.479157
2.885742	1.479011
2.886230	1.479228
2.886719	1.479126
2.887207	1.479143
2.887695	1.479210
2.888184	1.479129
2.888672	1.479119
2.889160	1.479180
2.889648	1.479440
2.890137	1.479169
2.890625	1.479371
2.891113	1.479457
2.891602	1.479412
2.892090	1.479269
2.892578	1.479212
2.893066	1.479255
2.893555	1.479251
2.894043	1.479183
2.894531	1.479388
2.895020	1.479082
2.895508	1.478933
2.895996	1.479002
2.896484	1.478731
2.896973	1.479042
2.897461	1.479088
2.897949	1.478954
2.898437	1.478856
2.898926	1.478742
2.899414	1.478900
2.899902	1.479000
2.900391	1.478869
2.900879	1.479058
2.901367	1.478993
2.901855	1.479338
2.902344	1.479169
2.902832	1.479166
2.903320	1.479341
2.903809	1.479107
2.904297	1.479173
2.904785	1.479066
2.905273	1.479254
2.905762	1.479247
2.906250	1.479362
2.906738	1.479404
2.907227	1.478889
2.907715	1.479206
2.908203	1.479027
2.908691	1.479166
2.909180	1.479057
2.909668	1.478975
2.910156	1.479212
2.910645	1.479015
2.911133	1.478966
2.911621	1.479068
2.912109	1.478953
2.912598	1.478915
2.913086	1.478982
2.913574	1.478921
2.914062	1.479132
2.914551	1.479078
2.915039	1.478991
2.915527	1.479010
2.916016	1.479076
2.916504	1.479006
2.916992	1.479171
2.917480	1.479171
2.917969	1.479019
2.918457	1.479112
2.918945	1.479263
2.919434	1.479315
2.919922	1.479188
2.920410	1.479337
2.920898	1.479231
2.921387	1.479338
2.921875	1.479514
2.922363	1.479285
2.922852	1.479364
2.923340	1.479259
2.923828	1.479302
2.924316	1.479285
2.924805	1.479161
2.925293	1.479072
2.925781	1.479149
2.926270	1.478946
2.926758	1.479036
2.927246	1.479149
2.927734	1.479101
2.928223	1.479160
2.928711	1.479050
2.929199	1.478973
2.929687	1.479246
2.930176	1.479216
2.930664	1.479171
2.931152	1.479408
2.931641	1.479349
2.932129	1.479447
2.932617	1.479163
2.933105	1.479136
2.933594	1.479396
2.934082	1.479417
2.934570	1.479144
2.935059	1.479216
2.935547	1.479208
2.936035	1.479373
2.936523	1.479496
2.937012	1.479388
2.937500	1.479534
2.937988	1.479391
2.938477	1.479087
2.938965	1.479204
2.939453	1.479280
2.939941	1.479113
2.940430	1.479082
2.940918	1.478964
2.941406	1.479125
2.941895	1.478961
2.942383	1.479083
2.942871	1.478843
2.943359	1.479003
2.943848	1.478712
2.944336	1.479063
2.944824	1.478733
2.945312	1.478872
2.945801	1.479106
2.946289	1.479093
2.946777	1.479140
2.947266	1.479035
2.947754	1.479026
2.948242	1.479046
2.948730	1.479125
2.949219	1.479372
2.949707	1.479398
2.950195	1.479204
2.950684	1.479256
2.951172	1.479391
2.951660	1.479255
2.952148	1.479303
2.952637	1.479057
2.953125	1.479196
2.953613	1.479143
2.954102	1.479034
2.954590	1.479030
2.955078	1.478946
2.955566	1.478898
2.956055	1.478993
2.956543	1.478692
2.957031	1.478848
2.957520	1.478715
2.958008	1.478913
2.958496	1.478754
2.958984	1.478925
2.959473	1.478925
2.959961	1.478859
2.960449	1.479055
2.960937	1.478948
2.961426	1.479033
2.961914	1.478972
2.962402	1.479107
2.962891	1.479108
2.963379	1.479021
2.963867	1.479324
2.964355	1.479136
2.964844	1.479099
2.965332	1.478981
2.965820	1.479218
2.966309	1.479172
2.966797	1.478878
2.967285	1.479374
2.967773	1.479208
2.968262	1.479310
2.968750	1.479227
2.969238	1.479268
2.969727	1.479120
2.970215	1.478903
2.970703	1.479075
2.971191	1.479197
2.971680	1.479085
2.972168	1.479044
2.972656	1.478975
2.973145	1.478884
2.973633	1.479114
2.974121	1.479120
2.974609	1.478974
2.975098	1.478809
2.975586	1.479195
2.976074	1.478996
2.976562	1.479097
2.977051	1.479185
2.977539	1.479183
2.978027	1.479217
2.978516	1.479143
2.979004	1.479237
2.979492	1.479253
2.979980	1.479232
2.980469	1.479310
2.980957	1.479316
2.981445	1.479468
2.981934	1.479536
2.982422	1.479321
2.982910	1.479549
2.983398	1.479412
2.983887	1.479507
2.984375	1.479327
2.984863	1.479148
2.985352	1.479320
2.985840	1.479122
2.986328	1.479244
2.986816	1.479421
2.987305	1.478657
2.987793	1.478980
2.988281	1.478873
2.988770	1.478939
2.989258	1.479179
2.989746	1.478952
2.990234	1.479221
2.990723	1.478945
2.991211	1.478812
2.991699	1.479275
2.992187	1.479113
2.992676	1.479261
2.993164	1.479096
2.993652	1.479255
2.994141	1.479515
2.994629	1.479035
2.995117	1.479102
2.995605	1.479003
2.996094	1.479116
2.996582	1.479202
2.997070	1.479177
2.997559	1.479475
2.998047	1.479191
2.998535	1.479176
2.999023	1.478918
2.999512	1.478948
3.000000	1.478911
3.000488	1.478841
3.000977	1.479104
3.001465	1.478954
3.001953	1.479054
3.002441	1.478939
3.002930	1.478997
3.003418	1.478948
3.003906	1.479027
3.004395	1.478885
3.004883	1.478861
3.005371	1.478702
3.005859	1.478975
3.006348	1.478639
3.006836	1.478750
3.007324	1.479011
3.007812	1.478952
3.008301	1.478896
3.008789	1.479091
3.009277	1.479141
3.009766	1.479103
3.010254	1.479241
3.010742	1.479231
3.011230	1.479202
3.011719	1.479395
3.012207	1.479301
3.012695	1.479415
3.013184	1.479302
3.013672	1.479308
3.014160	1.479457
3.014648	1.479222
3.015137	1.479256
3.015625	1.479232
3.016113	1.479391
3.016602	1.479193
3.017090	1.479177
3.017578	1.478717
3.018066	1.478954
3.018555	1.479145
3.019043	1.479078
3.019531	1.478983
3.020020	1.479208
3.020508	1.479399
3.020996	1.479089
3.021484	1.479053
3.021973	1.479233
3.022461	1.479263
3.022949	1.479268
3.023437	1.479354
3.023926	1.479460
3.024414	1.479301
3.024902	1.479526
3.025391	1.479517
3.025879	1.479491
3.026367	1.479462
3.026855	1.479459
3.027344	1.479514
3.027832	1.479412
3.028320	1.479708
3.028809	1.479476
3.029297	1.479464
3.029785	1.479501
3.030273	1.479380
3.030762	1.479411
3.031250	1.479262
3.031738	1.479434
3.032227	1.479266
3.032715	1.479264
3.033203	1.479455
3.033691	1.479295
3.034180	1.479232
3.034668	1.479332
3.035156	1.479221
3.035645	1.479055
3.036133	1.479317
3.036621	1.479052
3.037109	1.479346
3.037598	1.479230
3.038086	1.479307
3.038574	1.479378
3.039062	1.479387
3.039551	1.479291
3.040039	1.479536
3.040527	1.479260
3.041016	1.479421
3.041504	1.479641
3.041992	1.479634
3.042480	1.479395
3.042969	1.479670
3.043457	1.479406
3.043945	1.479054
3.044434	1.479417
3.044922	1.479275
3.045410	1.479305
3.045898	1.479269
3.046387	1.479243
3.046875	1.479445
3.047363	1.478798
3.047852	1.478904
3.048340	1.478855
3.048828	1.478942
3.049316	1.479105
3.049805	1.478933
3.050293	1.479393
3.050781	1.479097
3.051270	1.479126
3.051758	1.479089
3.052246	1.479198
3.052734	1.479232
3.053223	1.479242
3.053711	1.479151
3.054199	1.479305
3.054687	1.479060
3.055176	1.479171
3.055664	1.479191
3.056152	1.479172
3.056641	1.478978
3.057129	1.479339
3.057617	1.478886
3.058105	1.479377
3.058594	1.479210
3.059082	1.479185
3.059570	1.479320
3.060059	1.479293
3.060547	1.479390
3.061035	1.479021
3.061523	1.479379
3.062012	1.479085
3.062500	1.479161
3.062988	1.479032
3.063477	1.479182
3.063965	1.478994
3.064453	1.479207
3.064941	1.479086
3.065430	1.479010
3.065918	1.478968
3.066406	1.479078
3.066895	1.479010
3.067383	1.479018
3.067871	1.479280
3.068359	1.479231
3.068848	1.479313
3.069336	1.479450
3.069824	1.479456
3.070312	1.479745
3.070801	1.479410
3.071289	1.479582
3.071777	1.479709
3.072266	1.479603
3.072754	1.479584
3.073242	1.479693
3.073730	1.479448
3.074219	1.479459
3.074707	1.479431
3.075195	1.479547
3.075684	1.479243
3.076172	1.479140
3.076660	1.479372
3.077148	1.479409
3.077637	1.479218
3.078125	1.479173
3.078613	1.479122
3.079102	1.479127
3.079590	1.479247
3.080078	1.479049
3.080566	1.479109
3.081055	1.479351
3.081543	1.479356
3.082031	1.479407
3.082520	1.479345
3.083008	1.479407
3.083496	1.479365
3.083984	1.479320
3.084473	1.479319
3.084961	1.479446
3.085449	1.479222
3.085937	1.479716
3.086426	1.479440
3.086914	1.479524
3.087402	1.479284
3.087891	1.479351
3.088379	1.479498
3.088867	1.479314
3.089355	1.479390
3.089844	1.479553
3.090332	1.479179
3.090820	1.479172
3.091309	1.479466
3.091797	1.479418
3.092285	1.479331
3.092773	1.479081
3.093262	1.479230
3.093750	1.479126
3.094238	1.478737
3.094727	1.478911
3.095215	1.478435
3.095703	1.478975
3.096191	1.478814
3.096680	1.479039
3.097168	1.479092
3.097656	1.478907
3.098145	1.478898
3.098633	1.478897
3.099121	1.479019
3.099609	1.478969
3.100098	1.479038
3.100586	1.478840
3.101074	1.479071
3.101562	1.479039
3.102051	1.479107
3.102539	1.478945
3.103027	1.479353
3.103516	1.479407
3.104004	1.479159
3.104492	1.479243
3.104980	1.479050
3.105469	1.478927
3.105957	1.479068
3.106445	1.479123
3.106934	1.479127
3.107422	1.478963
3.107910	1.479150
3.108398	1.478833
3.108887	1.478700
3.109375	1.478906
3.109863	1.478826
3.110352	1.478926
3.110840	1.478851
3.111328	1.478958
3.111816	1.479202
3.112305	1.478744
3.112793	1.478933
3.113281	1.478784
3.113770	1.478916
3.114258	1.479056
3.114746	1.479153
3.115234	1.479083
3.115723	1.479241
3.116211	1.479429
3.116699	1.479495
3.117187	1.479223
3.117676	1.479395
3.118164	1.479488
3.118652	1.479271
3.119141	1.479257
3.119629	1.479220
3.120117	1.479215
3.120605	1.479022
3.121094	1.479249
3.121582	1.479102
3.122070	1.479345
3.122559	1.478982
3.123047	1.479207
3.123535	1.479202
3.124023	1.478975
3.124512	1.479008
3.125000	1.479032
3.125488	1.478977
3.125977	1.478800
3.126465	1.478916
3.126953	1.479042
3.127441	1.478974
3.127930	1.478956
3.128418	1.478996
3.128906	1.479170
3.129395	1.479053
3.129883	1.479000
3.130371	1.479043
3.130859	1.479146
3.131348	1.479155
3.131836	1.479302
3.132324	1.479302
3.132812	1.479270
3.133301	1.479237
3.133789	1.479357
3.134277	1.479299
3.134766	1.479395
3.135254	1.479477
3.135742	1.479135
3.136230	1.479463
3.136719	1.479041
3.137207	1.479166
3.137695	1.478998
3.138184	1.478763
3.138672	1.479005
3.139160	1.478950
3.139648	1.478806
3.140137	1.478704
3.140625	1.478982
3.141113	1.478743
3.141602	1.479141
3.142090	1.478711
3.142578	1.478739
3.143066	1.479041
3.143555	1.478809
3.144043	1.479085
3.144531	1.478980
3.145020	1.479152
3.145508	1.479263
3.145996	1.479049
3.146484	1.479350
3.146973	1.479032
3.147461	1.479244
3.147949	1.479230
3.148437	1.479282
3.148926	1.479340
3.149414	1.479224
3.149902	1.479511
3.150391	1.479139
3.150879	1.479204
3.151367	1.479271
3.151855	1.479157
3.152344	1.479271
3.152832	1.479068
3.153320	1.479312
3.153809	1.479153
3.154297	1.479116
3.154785	1.478892
3.155273	1.478993
3.155762	1.478900
3.156250	1.479237
3.156738	1.478872
3.157227	1.478987
3.157715	1.478967
3.158203	1.478952
3.158691	1.478795
3.159180	1.479137
3.159668	1.479136
3.160156	1.479083
3.160645	1.479278
3.161133	1.479177
3.161621	1.479548
3.162109	1.479455
3.162598	1.479489
3.163086	1.479371
3.163574	1.479325
3.164062	1.479685
3.164551	1.479630
3.165039	1.479367
3.165527	1.479489
3.166016	1.479640
3.166504	1.479464
3.166992	1.479484
3.167480	1.479437
3.167969	1.479312
3.168457	1.479279
3.168945	1.479314
3.169434	1.479302
3.169922	1.479480
3.170410	1.479100
3.170898	1.479248
3.171387	1.479274
3.171875	1.479266
3.172363	1.479399
3.172852	1.479302
3.173340	1.479344
3.173828	1.479270
3.174316	1.479137
3.174805	1.479469
3.175293	1.479035
3.175781	1.479332
3.176270	1.479328
3.176758	1.479603
3.177246	1.479295
3.177734	1.479777
3.178223	1.479663
3.178711	1.479575
3.179199	1.479537
3.179687	1.479906
3.180176	1.479680
3.180664	1.479329
3.181152	1.479626
3.181641	1.479630
3.182129	1.479552
3.182617	1.479148
3.183105	1.479418
3.183594	1.479451
3.184082	1.479412
3.184570	1.479661
3.185059	1.479282
3.185547	1.479318
3.186035	1.479216
3.186523	1.479226
3.187012	1.479275
3.187500	1.479225
3.187988	1.479147
3.188477	1.479248
3.188965	1.479043
3.189453	1.479403
3.189941	1.478997
3.190430	1.479179
3.190918	1.479133
3.191406	1.479409
3.191895	1.479380
3.192383	1.479201
3.192871	1.479351
3.193359	1.479752
3.193848	1.479471
3.194336	1.479348
3.194824	1.479481
3.195312	1.479313
3.195801	1.479313
3.196289	1.479582
3.196777	1.479491
3.197266	1.479511
3.197754	1.479374
3.198242	1.479349
3.198730	1.479223
3.199219	1.479271
3.199707	1.479213
3.200195	1.479221
3.200684	1.479115
3.201172	1.479205
3.201660	1.478959
3.202148	1.479057
3.202637	1.479034
3.203125	1.479202
3.203613	1.478998
3.204102	1.479108
3.204590	1.479117
3.205078	1.479252
3.205566	1.479271
3.206055	1.479329
3.206543	1.479224
3.207031	1.479392
3.207520	1.479305
3.208008	1.479313
3.208496	1.479460
3.208984	1.479418
3.209473	1.479326
3.209961	1.479614
3.210449	1.479519
3.210937	1.479449
3.211426	1.479512
3.211914	1.479534
3.212402	1.479487
3.212891	1.479209
3.213379	1.479344
3.213867	1.479316
3.214355	1.479194
3.214844	1.479309
3.215332	1.479239
3.215820	1.479240
3.216309	1.479100
3.216797	1.479051
3.217285	1.479162
3.217773	1.479116
3.218262	1.478958
3.218750	1.479166
3.219238	1.479257
3.219727	1.479296
3.220215	1.479379
3.220703	1.479348
3.221191	1.479452
3.221680	1.479279
3.222168	1.479544
3.222656	1.479387
3.223145	1.479380
3.223633	1.479474
3.224121	1.479341
3.224609	1.479758
3.225098	1.479529
3.225586	1.479404
3.226074	1.479449
3.226562	1.479209
3.227051	1.479376
3.227539	1.479451
3.228027	1.479476
3.228516	1.479357
3.229004	1.479220
3.229492	1.479255
3.229980	1.479271
3.230469	1.478982
3.230957	1.479145
3.231445	1.479210
3.231934	1.479239
3.232422	1.479251
3.232910	1.479422
3.233398	1.479193
3.233887	1.479161
3.234375	1.479106
3.234863	1.478938
3.235352	1.479196
3.235840	1.479311
3.236328	1.479382
3.236816	1.479462
3.237305	1.479359
3.237793	1.479403
3.238281	1.479462
3.238770	1.479453
3.239258	1.479388
3.239746	1.479460
3.240234	1.479468
3.240723	1.479368
3.241211	1.479455
3.241699	1.479477
3.242187	1.479553
3.242676	1.479285
3.243164	1.479121
3.243652	1.479385
3.244141	1.479205
3.244629	1.479088
3.245117	1.479194
3.245605	1.479102
3.246094	1.479138
3.246582	1.479069
3.247070	1.479066
3.247559	1.478905
3.248047	1.479087
3.248535	1.479044
3.249023	1.479017
3.249512	1.479230
3.250000	1.478886
3.250488	1.479227
3.250977	1.479041
3.251465	1.479225
3.251953	1.479391
3.252441	1.479296
3.252930	1.479537
3.253418	1.479414
3.253906	1.479417
3.254395	1.479592
3.254883	1.479313
3.255371	1.479481
3.255859	1.479706
3.256348	1.479144
3.256836	1.479520
3.257324	1.479249
3.257812	1.479321
3.258301	1.479562
3.258789	1.479291
3.259277	1.479454
3.259766	1.479021
3.260254	1.479072
3.260742	1.479266
3.261230	1.478904
3.261719	1.479163
3.262207	1.479140
3.262695	1.479349
3.263184	1.479520
3.263672	1.479339
3.264160	1.479391
3.264648	1.479353
3.265137	1.479198
3.265625	1.479403
3.266113	1.479396
3.266602	1.479481
3.267090	1.479595
3.267578	1.479673
3.268066	1.479471
3.268555	1.479601
3.269043	1.479621
3.269531	1.479540
3.270020	1.479426
3.270508	1.479666
3.270996	1.479687
3.271484	1.479701
3.271973	1.479733
3.272461	1.479599
3.272949	1.479527
3.273437	1.479522
3.273926	1.479439
3.274414	1.479507
3.274902	1.479279
3.275391	1.479511
3.275879	1.479374
3.276367	1.479057
3.276855	1.479344
3.277344	1.479133
3.277832	1.479138
3.278320	1.479250
3.278809	1.479136
3.279297	1.479173
3.279785	1.479044
3.280273	1.479197
3.280762	1.479326
3.281250	1.479257
3.281738	1.479432
3.282227	1.479303
3.282715	1.479606
3.283203	1.479594
3.283691	1.479454
3.284180	1.479597
3.284668	1.479454
3.285156	1.479273
3.285645	1.479412
3.286133	1.479655
3.286621	1.479498
3.287109	1.479496
3.287598	1.479504
3.288086	1.479487
3.288574	1.479169
3.289062	1.479554
3.289551	1.479301
3.290039	1.479456
3.290527	1.479432
3.291016	1.479340
3.291504	1.479263
3.291992	1.479237
3.292480	1.479177
3.292969	1.479208
3.293457	1.479030
3.293945	1.479326
3.294434	1.479110
3.294922	1.479125
3.295410	1.479116
3.295898	1.479284
3.296387	1.479092
3.296875	1.479130
3.297363	1.479181
3.297852	1.479288
3.298340	1.479619
3.298828	1.479403
3.299316	1.479447
3.299805	1.479556
3.300293	1.479549
3.300781	1.479276
3.301270	1.479429
3.301758	1.479667
3.302246	1.479413
3.302734	1.479625
3.303223	1.479511
3.303711	1.479327
3.304199	1.479266
3.304687	1.479219
3.305176	1.479253
3.305664	1.478798
3.306152	1.478959
3.306641	1.479364
3.307129	1.478977
3.307617	1.479210
3.308105	1.479091
3.308594	1.479062
3.309082	1.479029
3.309570	1.479135
3.310059	1.479057
3.310547	1.479204
3.311035	1.479013
3.311523	1.479301
3.312012	1.479114
3.312500	1.479266
3.312988	1.479341
3.313477	1.479233
3.313965	1.479776
3.314453	1.479424
3.314941	1.479287
3.315430	1.479427
3.315918	1.479597
3.316406	1.479545
3.316895	1.479573
3.317383	1.479254
3.317871	1.479385
3.318359	1.479352
3.318848	1.479417
3.319336	1.479375
3.319824	1.479168
3.320312	1.479202
3.320801	1.479190
3.321289	1.479199
3.321777	1.479110
3.322266	1.479174
3.322754	1.479196
3.323242	1.479293
3.323730	1.479161
3.324219	1.479193
3.324707	1.479074
3.325195	1.478953
3.325684	1.479107
3.326172	1.479256
3.326660	1.479143
3.327148	1.479329
3.327637	1.479266
3.328125	1.479293
3.328613	1.479229
3.329102	1.479460
3.329590	1.479601
3.330078	1.479283
3.330566	1.479503
3.331055	1.479558
3.331543	1.479373
3.332031	1.479262
3.332520	1.479341
3.333008	1.479463
3.333496	1.479177
3.333984	1.479265
3.334473	1.479097
3.334961	1.478983
3.335449	1.479089
3.335937	1.478985
3.336426	1.479126
3.336914	1.478978
3.337402	1.478913
3.337891	1.478844
3.338379	1.478837
3.338867	1.478817
3.339355	1.478904
3.339844	1.478815
3.340332	1.478944
3.340820	1.479019
3.341309	1.478909
3.341797	1.479224
3.342285	1.479074
3.342773	1.479107
3.343262	1.479115
3.343750	1.479130
3.344238	1.479335
3.344727	1.479125
3.345215	1.479215
3.345703	1.479237
3.346191	1.479197
3.346680	1.479226
3.347168	1.479087
3.347656	1.479259
3.348145	1.479179
3.348633	1.479108
3.349121	1.479026
3.349609	1.478894
3.350098	1.479114
3.350586	1.478918
3.351074	1.479127
3.351562	1.478989
3.352051	1.478953
3.352539	1.478877
3.353027	1.478814
3.353516	1.478823
3.354004	1.478881
3.354492	1.479030
3.354980	1.478953
3.355469	1.478801
3.355957	1.479165
3.356445	1.478739
3.356934	1.478851
3.357422	1.479169
3.357910	1.479130
3.358398	1.479154
3.358887	1.479033
3.359375	1.479233
3.359863	1.479260
3.360352	1.478858
3.360840	1.479224
3.361328	1.479079
3.361816	1.479295
3.362305	1.479174
3.362793	1.479305
3.363281	1.479647
3.363770	1.479092
3.364258	1.479270
3.364746	1.479065
3.365234	1.478947
3.365723	1.479082
3.366211	1.478948
3.366699	1.479194
3.367187	1.479115
3.367676	1.478862
3.368164	1.478820
3.368652	1.478850
3.369141	1.478897
3.369629	1.478641
3.370117	1.479037
3.370605	1.478902
3.371094	1.478765
3.371582	1.479198
3.372070	1.478994
3.372559	1.478933
3.373047	1.479293
3.373535	1.479095
3.374023	1.478879
3.374512	1.479189
3.375000	1.479175
3.375488	1.479256
3.375977	1.479260
3.376465	1.479192
3.376953	1.479370
3.377441	1.479230
3.377930	1.479347
3.378418	1.479139
3.378906	1.478832
3.379395	1.479118
3.379883	1.479068
3.380371	1.479001
3.380859	1.478864
3.381348	1.479210
3.381836	1.478933
3.382324	1.479302
3.382812	1.479061
3.383301	1.479093
3.383789	1.478864
3.384277	1.479080
3.384766	1.478887
3.385254	1.478819
3.385742	1.479035
3.386230	1.479161
3.386719	1.479014
3.387207	1.479104
3.387695	1.478853
3.388184	1.479103
3.388672	1.479171
3.389160	1.479096
3.389648	1.479336
3.390137	1.479213
3.390625	1.479361
3.391113	1.479268
3.391602	1.479396
3.392090	1.479321
3.392578	1.479052
3.393066	1.479259
3.393555	1.479335
3.394043	1.479249
3.394531	1.479281
3.395020	1.479142
3.395508	1.479148
3.395996	1.478997
3.396484	1.479122
3.396973	1.479327
3.397461	1.479030
3.397949	1.478958
3.398437	1.478941
3.398926	1.479065
3.399414	1.478938
3.399902	1.479240
3.400391	1.478838
3.400879	1.479082
3.401367	1.478853
3.401855	1.479193
3.402344	1.479017
3.402832	1.479093
3.403320	1.479387
3.403809	1.479242
3.404297	1.479383
3.404785	1.479156
3.405273	1.479141
3.405762	1.479222
3.406250	1.479085
3.406738	1.479434
3.407227	1.479369
3.407715	1.479359
3.408203	1.479552
3.408691	1.479478
3.409180	1.479440
3.409668	1.479283
3.410156	1.479312
3.410645	1.479138
3.411133	1.479212
3.411621	1.479165
3.412109	1.479074
3.412598	1.478970
3.413086	1.478937
3.413574	1.479122
3.414062	1.479084
3.414551	1.478895
3.415039	1.479144
3.415527	1.479078
3.416016	1.479062
3.416504	1.478944
3.416992	1.478923
3.417480	1.479385
3.417969	1.479002
3.418457	1.479337
3.418945	1.479248
3.419434	1.479455
3.419922	1.479609
3.420410	1.479367
3.420898	1.479501
3.421387	1.479541
3.421875	1.479484
3.422363	1.479568
3.422852	1.479530
3.423340	1.479341
3.423828	1.479486
3.424316	1.479179
3.424805	1.479359
3.425293	1.479290
3.425781	1.479237
3.426270	1.479520
3.426758	1.479005
3.427246	1.479081
3.427734	1.479158
3.428223	1.478920
3.428711	1.479158
3.429199	1.479028
3.429687	1.479277
3.430176	1.479261
3.430664	1.479087
3.431152	1.479242
3.431641	1.479227
3.432129	1.479199
3.432617	1.479291
3.433105	1.479484
3.433594	1.479321
3.434082	1.479489
3.434570	1.479595
3.435059	1.479390
3.435547	1.479612
3.436035	1.479307
3.436523	1.479402
3.437012	1.479548
3.437500	1.479541
3.437988	1.479803
3.438477	1.479609
3.438965	1.479388
3.439453	1.479547
3.439941	1.479352
3.440430	1.479399
3.440918	1.479342
3.441406	1.479504
3.441895	1.479482
3.442383	1.479384
3.442871	1.479299
3.443359	1.479341
3.443848	1.479271
3.444336	1.479458
3.444824	1.479377
3.445312	1.479349
3.445801	1.479401
3.446289	1.479413
3.446777	1.479280
3.447266	1.479331
3.447754	1.479316
3.448242	1.479553
3.448730	1.479558
3.449219	1.479390
3.449707	1.479731
3.450195	1.479659
3.450684	1.479547
3.451172	1.479604
3.451660	1.479623
3.452148	1.479695
3.452637	1.479553
3.453125	1.479740
3.453613	1.479819
3.454102	1.479741
3.454590	1.479691
3.455078	1.479312
3.455566	1.479516
3.456055	1.479446
3.456543	1.479398
3.457031	1.479786
3.457520	1.479395
3.458008	1.479535
3.458496	1.479550
3.458984	1.479633
3.459473	1.479240
3.459961	1.479495
3.460449	1.479365
3.460937	1.479639
3.461426	1.479503
3.461914	1.479637
3.462402	1.479717
3.462891	1.479651
3.463379	1.479586
3.463867	1.479601
3.464355	1.479694
3.464844	1.479628
3.465332	1.479587
3.465820	1.479833
3.466309	1.479794
3.466797	1.479732
3.467285	1.479753
3.467773	1.479838
3.468262	1.479861
3.468750	1.479428
3.469238	1.479721
3.469727	1.479676
3.470215	1.479600
3.470703	1.479550
3.471191	1.479686
3.471680	1.479634
3.472168	1.479591
3.472656	1.479567
3.473145	1.479489
3.473633	1.479398
3.474121	1.479261
3.474609	1.479320
3.475098	1.479237
3.475586	1.479340
3.476074	1.479537
3.476562	1.479341
3.477051	1.479456
3.477539	1.479598
3.478027	1.479349
3.478516	1.479480
3.479004	1.479543
3.479492	1.479623
3.479980	1.479572
3.480469	1.479478
3.480957	1.479577
3.481445	1.479744
3.481934	1.479680
3.482422	1.479501
3.482910	1.479674
3.483398	1.479775
3.483887	1.479687
3.484375	1.479663
3.484863	1.479512
3.485352	1.479424
3.485840	1.479699
3.486328	1.479409
3.486816	1.479332
3.487305	1.479645
3.487793	1.479113
3.488281	1.479212
3.488770	1.479467
3.489258	1.479351
3.489746	1.479443
3.490234	1.479201
3.490723	1.479588
3.491211	1.479327
3.491699	1.479199
3.492187	1.479277
3.492676	1.479018
3.493164	1.479362
3.493652	1.479222
3.494141	1.479406
3.494629	1.479351
3.495117	1.479352
3.495605	1.479520
3.496094	1.479186
3.496582	1.479569
3.497070	1.479285
3.497559	1.479324
3.498047	1.479457
3.498535	1.479555
3.499023	1.479543
3.499512	1.479529
3.500000	1.479425
3.500488	1.479396
3.500977	1.479316
3.501465	1.479245
3.501953	1.479352
3.502441	1.479263
3.502930	1.479305
3.503418	1.479075
3.503906	1.479058
3.504395	1.479071
3.504883	1.478869
3.505371	1.478632
3.505859	1.479010
3.506348	1.479036
3.506836	1.478989
3.507324	1.479168
3.507812	1.478996
3.508301	1.479112
3.508789	1.479109
3.509277	1.479354
3.509766	1.479109
3.510254	1.479168
3.510742	1.479121
3.511230	1.479325
3.511719	1.479467
3.512207	1.479617
3.512695	1.479275
3.513184	1.479459
3.513672	1.479405
3.514160	1.479475
3.514648	1.479197
3.515137	1.479378
3.515625	1.479349
3.516113	1.479466
3.516602	1.479316
3.517090	1.479108
3.517578	1.479093
3.518066	1.479029
3.518555	1.479251
3.519043	1.479038
3.519531	1.479223
3.520020	1.478795
3.520508	1.479121
3.520996	1.479046
3.521484	1.479205
3.521973	1.479196
3.522461	1.479252
3.522949	1.479490
3.523437	1.478892
3.523926	1.479280
3.524414	1.479144
3.524902	1.479130
3.525391	1.479406
3.525879	1.479220
3.526367	1.479753
3.526855	1.479526
3.527344	1.479437
3.527832	1.479370
3.528320	1.479639
3.528809	1.479549
3.529297	1.479538
3.529785	1.479371
3.530273	1.479362
3.530762	1.479457
3.531250	1.479501
3.531738	1.479520
3.532227	1.479222
3.532715	1.479440
3.533203	1.479456
3.533691	1.479316
3.534180	1.479104
3.534668	1.479366
3.535156	1.479244
3.535645	1.479533
3.536133	1.479080
3.536621	1.479227
3.537109	1.479183
3.537598	1.479171
3.538086	1.479297
3.538574	1.479104
3.539062	1.479528
3.539551	1.479413
3.540039	1.479348
3.540527	1.479378
3.541016	1.479377
3.541504	1.479629
3.541992	1.479520
3.542480	1.479526
3.542969	1.479666
3.543457	1.479449
3.543945	1.479599
3.544434	1.479540
3.544922	1.479522
3.545410	1.479321
3.545898	1.479384
3.546387	1.479532
3.546875	1.479309
3.547363	1.479207
3.547852	1.479310
3.548340	1.479401
3.548828	1.479186
3.549316	1.479111
3.549805	1.479342
3.550293	1.479077
3.550781	1.479367
3.551270	1.479243
3.551758	1.479340
3.552246	1.479163
3.552734	1.479186
3.553223	1.479208
3.553711	1.479161
3.554199	1.479316
3.554687	1.479549
3.555176	1.479193
3.555664	1.479434
3.556152	1.479332
3.556641	1.479160
3.557129	1.479486
3.557617	1.479461
3.558105	1.479520
3.558594	1.479591
3.559082	1.479351
3.559570	1.479334
3.560059	1.479308
3.560547	1.479558
3.561035	1.479328
3.561523	1.479403
3.562012	1.479562
3.562500	1.479285
3.562988	1.479489
3.563477	1.479302
3.563965	1.479285
3.564453	1.479280
3.564941	1.479107
3.565430	1.479265
3.565918	1.479293
3.566406	1.479042
3.566895	1.479152
3.567383	1.478974
3.567871	1.479251
3.568359	1.479210
3.568848	1.479160
3.569336	1.479220
3.569824	1.479233
3.570312	1.479277
3.570801	1.479463
3.571289	1.479257
3.571777	1.479637
3.572266	1.479359
3.572754	1.479678
3.573242	1.479714
3.573730	1.479376
3.574219	1.479481
3.574707	1.479174
3.575195	1.479259
3.575684	1.479470
3.576172	1.479406
3.576660	1.479639
3.577148	1.479380
3.577637	1.479391
3.578125	1.479313
3.578613	1.479226
3.579102	1.479249
3.579590	1.479176
3.580078	1.479302
3.580566	1.479396
3.581055	1.479071
3.581543	1.479325
3.582031	1.479442
3.582520	1.479201
3.583008	1.479117
3.583496	1.479254
3.583984	1.479399
3.584473	1.479229
3.584961	1.479232
3.585449	1.479087
3.585937	1.479260
3.586426	1.479324
3.586914	1.479403
3.587402	1.479482
3.587891	1.479446
3.588379	1.479246
3.588867	1.479386
3.589355	1.479305
3.589844	1.479471
3.590332	1.479659
3.590820	1.479564
3.591309	1.479423
3.591797	1.479631
3.592285	1.479531
3.592773	1.479062
3.593262	1.479343
3.593750	1.479008
3.594238	1.479266
3.594727	1.479038
3.595215	1.478909
3.595703	1.478820
3.596191	1.479057
3.596680	1.478817
3.597168	1.479155
3.597656	1.478909
3.598145	1.479015
3.598633	1.479013
3.599121	1.479002
3.599609	1.479034
3.600098	1.479070
3.600586	1.479130
3.601074	1.479306
3.601562	1.479242
3.602051	1.479387
3.602539	1.479186
3.603027	1.479039
3.603516	1.479351
3.604004	1.479365
3.604492	1.479435
3.604980	1.479057
3.605469	1.479325
3.605957	1.479518
3.606445	1.479011
3.606934	1.479118
3.607422	1.479063
3.607910	1.479086
3.608398	1.479069
3.608887	1.478991
3.609375	1.479279
3.609863	1.479074
3.610352	1.479050
3.610840	1.479146
3.611328	1.478989
3.611816	1.479039
3.612305	1.479027
3.612793	1.479132
3.613281	1.479237
3.613770	1.479163
3.614258	1.479146
3.614746	1.479132
3.615234	1.478950
3.615723	1.479218
3.616211	1.479109
3.616699	1.479352
3.617187	1.479294
3.617676	1.479137
3.618164	1.479509
3.618652	1.479305
3.619141	1.479391
3.619629	1.479364
3.620117	1.479354
3.620605	1.479436
3.621094	1.479416
3.621582	1.479561
3.622070	1.479611
3.622559	1.479262
3.623047	1.479449
3.623535	1.479230
3.624023	1.479231
3.624512	1.479348
3.625000	1.479247
3.625488	1.479114
3.625977	1.479017
3.626465	1.479004
3.626953	1.479099
3.627441	1.479263
3.627930	1.479044
3.628418	1.479061
3.628906	1.479083
3.629395	1.479187
3.629883	1.479146
3.630371	1.479117
3.630859	1.479230
3.631348	1.479397
3.631836	1.479407
3.632324	1.479360
3.632812	1.479226
3.633301	1.479430
3.633789	1.479590
3.634277	1.479558
3.634766	1.479199
3.635254	1.479254
3.635742	1.479242
3.636230	1.479457
3.636719	1.479329
3.637207	1.479102
3.637695	1.479156
3.638184	1.479286
3.638672	1.479102
3.639160	1.479243
3.639648	1.479225
3.640137	1.479102
3.640625	1.479061
3.641113	1.479047
3.641602	1.479186
3.642090	1.478992
3.642578	1.479055
3.643066	1.479010
3.643555	1.479126
3.644043	1.478942
3.644531	1.479035
3.645020	1.479028
3.645508	1.478955
3.645996	1.479222
3.646484	1.479193
3.646973	1.479271
3.647461	1.479295
3.647949	1.479386
3.648437	1.479063
3.648926	1.479492
3.649414	1.479093
3.649902	1.479190
3.650391	1.479338
3.650879	1.479349
3.651367	1.479109
3.651855	1.479277
3.652344	1.479417
3.652832	1.479255
3.653320	1.479475
3.653809	1.479140
3.654297	1.479234
3.654785	1.478897
3.655273	1.479045
3.655762	1.478914
3.656250	1.478958
3.656738	1.479014
3.657227	1.478986
3.657715	1.478972
3.658203	1.478978
3.658691	1.478786
3.659180	1.479161
3.659668	1.478776
3.660156	1.479098
3.660645	1.479174
3.661133	1.479075
3.661621	1.479224
3.662109	1.479172
3.662598	1.479249
3.663086	1.479509
3.663574	1.479262
3.664062	1.479549
3.664551	1.479319
3.665039	1.479127
3.665527	1.479373
3.666016	1.479080
3.666504	1.479381
3.666992	1.479379
3.667480	1.479197
3.667969	1.479241
3.668457	1.479024
3.668945	1.479123
3.669434	1.479077
3.669922	1.479030
3.670410	1.478959
3.670898	1.479161
3.671387	1.478886
3.671875	1.479149
3.672363	1.479219
3.672852	1.478996
3.673340	1.478983
3.673828	1.478934
3.674316	1.479117
3.674805	1.479158
3.675293	1.478728
3.675781	1.479271
3.676270	1.479243
3.676758	1.479130
3.677246	1.479397
3.677734	1.479214
3.678223	1.479441
3.678711	1.479532
3.679199	1.479290
3.679687	1.479335
3.680176	1.479246
3.680664	1.479418
3.681152	1.479336
3.681641	1.479374
3.682129	1.479587
3.682617	1.479233
3.683105	1.479415
3.683594	1.479309
3.684082	1.478936
3.684570	1.479116
3.685059	1.479289
3.685547	1.479012
3.686035	1.478994
3.686523	1.478847
3.687012	1.479190
3.687500	1.478786
3.687988	1.478654
3.688477	1.478968
3.688965	1.478834
3.689453	1.478950
3.689941	1.478944
3.690430	1.479307
3.690918	1.479127
3.691406	1.478890
3.691895	1.479320
3.692383	1.478959
3.692871	1.479069
3.693359	1.479069
3.693848	1.479155
3.694336	1.479287
3.694824	1.479041
3.695312	1.479145
3.695801	1.479123
3.696289	1.478908
3.696777	1.479463
3.697266	1.479233
3.697754	1.479315
3.698242	1.479216
3.698730	1.478922
3.699219	1.478945
3.699707	1.479007
3.700195	1.478870
3.700684	1.478936
3.701172	1.478911
3.701660	1.479206
3.702148	1.478641
3.702637	1.478761
3.703125	1.479031
3.703613	1.478679
3.704102	1.478864
3.704590	1.478609
3.705078	1.479114
3.705566	1.478978
3.706055	1.478778
3.706543	1.478841
3.707031	1.478761
3.707520	1.478872
3.708008	1.478941
3.708496	1.479021
3.708984	1.479181
3.709473	1.479168
3.709961	1.479094
3.710449	1.479077
3.710937	1.479293
3.711426	1.479286
3.711914	1.479397
3.712402	1.479071
3.712891	1.479262
3.713379	1.479111
3.713867	1.479309
3.714355	1.479258
3.714844	1.479148
3.715332	1.479251
3.715820	1.478906
3.716309	1.478882
3.716797	1.479129
3.717285	1.479038
3.717773	1.478869
3.718262	1.479034
3.718750	1.478714
3.719238	1.478958
3.719727	1.478847
3.720215	1.479036
3.720703	1.478740
3.721191	1.479028
3.721680	1.479108
3.722168	1.479226
3.722656	1.478997
3.723145	1.479297
3.723633	1.479291
3.724121	1.479430
3.724609	1.479543
3.725098	1.479329
3.725586	1.479429
3.726074	1.479337
3.726562	1.479428
3.727051	1.479309
3.727539	1.479330
3.728027	1.479356
3.728516	1.479459
3.729004	1.479271
3.729492	1.479276
3.729980	1.479282
3.730469	1.479193
3.730957	1.479373
3.731445	1.478837
3.731934	1.479185
3.732422	1.479091
3.732910	1.478922
3.733398	1.479204
3.733887	1.479068
3.734375	1.479010
3.734863	1.479044
3.735352	1.478980
3.735840	1.479075
3.736328	1.479002
3.736816	1.479088
3.737305	1.479379
3.737793	1.479185
3.738281	1.479344
3.738770	1.479353
3.739258	1.479392
3.739746	1.479323
3.740234	1.479373
3.740723	1.479313
3.741211	1.479398
3.741699	1.479428
3.742187	1.479535
3.742676	1.479451
3.743164	1.479428
3.743652	1.479589
3.744141	1.479318
3.744629	1.479349
3.745117	1.479093
3.745605	1.479324
3.746094	1.479054
3.746582	1.478854
3.747070	1.479150
3.747559	1.479166
3.748047	1.479119
3.748535	1.479141
3.749023	1.479286
3.749512	1.479129
3.750000	1.479381
3.750488	1.479144
3.750977	1.479325
3.751465	1.479171
3.751953	1.479255
3.752441	1.479275
3.752930	1.479291
3.753418	1.479661
3.753906	1.479412
3.754395	1.479572
3.754883	1.479496
3.755371	1.479288
3.755859	1.479414
3.756348	1.479233
3.756836	1.479562
3.757324	1.479590
3.757812	1.479430
3.758301	1.479435
3.758789	1.479675
3.759277	1.479536
3.759766	1.479332
3.760254	1.479250
3.760742	1.479493
3.761230	1.479428
3.761719	1.479293
3.762207	1.479368
3.762695	1.479093
3.763184	1.479282
3.763672	1.479341
3.764160	1.479308
3.764648	1.479086
3.765137	1.479107
3.765625	1.479155
3.766113	1.479149
3.766602	1.479174
3.767090	1.479110
3.767578	1.479091
3.768066	1.479237
3.768555	1.479160
3.769043	1.479315
3.769531	1.479312
3.770020	1.479587
3.770508	1.479475
3.770996	1.479415
3.771484	1.479568
3.771973	1.479525
3.772461	1.479675
3.772949	1.479589
3.773437	1.479454
3.773926	1.479770
3.774414	1.479165
3.774902	1.479360
3.775391	1.479318
3.775879	1.479255
3.776367	1.479257
3.776855	1.479131
3.777344	1.479452
3.777832	1.479320
3.778320	1.479131
3.778809	1.479288
3.779297	1.478909
3.779785	1.479083
3.780273	1.479167
3.780762	1.479130
3.781250	1.479254
3.781738	1.479168
3.782227	1.479212
3.782715	1.479028
3.783203	1.479301
3.783691	1.479253
3.784180	1.479295
3.784668	1.479136
3.785156	1.479179
3.785645	1.479191
3.786133	1.479222
3.786621	1.479117
3.787109	1.479301
3.787598	1.479470
3.788086	1.479197
3.788574	1.479316
3.789062	1.479302
3.789551	1.479351
3.790039	1.479089
3.790527	1.479160
3.791016	1.478880
3.791504	1.479202
3.791992	1.479026
3.792480	1.478971
3.792969	1.478984
3.793457	1.478857
3.793945	1.479000
3.794434	1.479053
3.794922	1.478702
3.795410	1.478893
3.795898	1.478945
3.796387	1.479130
3.796875	1.479179
3.797363	1.478982
3.797852	1.479006
3.798340	1.478818
3.798828	1.479190
3.799316	1.479049
3.799805	1.479143
3.800293	1.479413
3.800781	1.479277
3.801270	1.479267
3.801758	1.479264
3.802246	1.479230
3.802734	1.479229
3.803223	1.479157
3.803711	1.479426
3.804199	1.479274
3.804687	1.479325
3.805176	1.479165
3.805664	1.478967
3.806152	1.479171
3.806641	1.478812
3.807129	1.478807
3.807617	1.479041
3.808105	1.478831
3.808594	1.479030
3.809082	1.478950
3.809570	1.478894
3.810059	1.479057
3.810547	1.478758
3.811035	1.478948
3.811523	1.478985
3.812012	1.479105
3.812500	1.479028
3.812988	1.479080
3.813477	1.479060
3.813965	1.478960
3.814453	1.479264
3.814941	1.479008
3.815430	1.479359
3.815918	1.479416
3.816406	1.479326
3.816895	1.479462
3.817383	1.479290
3.817871	1.479423
3.818359	1.479044
3.818848	1.479229
3.819336	1.479363
3.819824	1.479304
3.820312	1.479190
3.820801	1.479205
3.821289	1.479201
3.821777	1.479301
3.822266	1.479003
3.822754	1.479047
3.823242	1.479078
3.823730	1.478952
3.824219	1.478912
3.824707	1.479044
3.825195	1.478837
3.825684	1.478949
3.826172	1.479018
3.826660	1.478928
3.827148	1.479125
3.827637	1.479133
3.828125	1.479099
3.828613	1.479390
3.829102	1.479091
3.829590	1.479188
3.830078	1.479352
3.830566	1.479407
3.831055	1.479310
3.831543	1.479453
3.832031	1.479344
3.832520	1.479343
3.833008	1.479196
3.833496	1.479412
3.833984	1.479577
3.834473	1.479318
3.834961	1.479346
3.835449	1.479204
3.835937	1.479173
3.836426	1.479072
3.836914	1.478942
3.837402	1.479046
3.837891	1.478928
3.838379	1.478914
3.838867	1.478900
3.839355	1.478988
3.839844	1.479046
3.840332	1.479048
3.840820	1.479070
3.841309	1.478877
3.841797	1.479146
3.842285	1.479028
3.842773	1.479108
3.843262	1.479118
3.843750	1.479204
3.844238	1.479089
3.844727	1.479186
3.845215	1.479210
3.845703	1.479261
3.846191	1.479212
3.846680	1.479473
3.847168	1.479046
3.847656	1.479334
3.848145	1.479033
3.848633	1.479174
3.849121	1.479214
3.849609	1.479088
3.850098	1.479345
3.850586	1.479129
3.851074	1.479114
3.851562	1.479124
3.852051	1.478839
3.852539	1.478936
3.853027	1.479118
3.853516	1.478918
3.854004	1.479214
3.854492	1.478869
3.854980	1.478935
3.855469	1.478786
3.855957	1.478864
3.856445	1.478609
3.856934	1.478464
3.857422	1.478989
3.857910	1.479062
3.858398	1.478984
3.858887	1.479069
3.859375	1.479213
3.859863	1.479094
3.860352	1.479226
3.860840	1.479237
3.861328	1.479526
3.861816	1.479266
3.862305	1.479460
3.862793	1.479370
3.863281	1.479456
3.863770	1.479444
3.864258	1.479452
3.864746	1.479200
3.865234	1.479160
3.865723	1.479401
3.866211	1.479030
3.866699	1.479326
3.867187	1.479194
3.867676	1.479178
3.868164	1.478993
3.868652	1.478989
3.869141	1.478920
3.869629	1.479019
3.870117	1.478942
3.870605	1.479083
3.871094	1.478981
3.871582	1.479055
3.872070	1.479215
3.872559	1.479106
3.873047	1.479115
3.873535	1.479040
3.874023	1.479145
3.874512	1.479232
3.875000	1.479150
3.875488	1.479240
3.875977	1.479300
3.876465	1.479263
3.876953	1.479326
3.877441	1.479346
3.877930	1.479225
3.878418	1.479275
3.878906	1.479308
3.879395	1.479202
3.879883	1.479296
3.880371	1.479193
3.880859	1.479024
3.881348	1.479117
3.881836	1.479082
3.882324	1.478944
3.882812	1.479133
3.883301	1.478931
3.883789	1.479161
3.884277	1.479166
3.884766	1.478767
3.885254	1.478826
3.885742	1.478723
3.886230	1.478685
3.886719	1.478880
3.887207	1.478815
3.887695	1.479041
3.888184	1.478925
3.888672	1.479002
3.889160	1.479268
3.889648	1.479180
3.890137	1.478869
3.890625	1.479159
3.891113	1.479165
3.891602	1.479330
3.892090	1.479252
3.892578	1.479235
3.893066	1.479493
3.893555	1.479218
3.894043	1.479343
3.894531	1.479299
3.895020	1.479403
3.895508	1.479244
3.895996	1.479371
3.896484	1.479287
3.896973	1.479144
3.897461	1.479293
3.897949	1.479355
3.898437	1.479133
3.898926	1.478945
3.899414	1.479018
3.899902	1.479135
3.900391	1.478850
3.900879	1.479011
3.901367	1.479190
3.901855	1.479169
3.902344	1.479182
3.902832	1.479158
3.903320	1.479214
3.903809	1.479177
3.904297	1.479193
3.904785	1.479243
3.905273	1.479312
3.905762	1.479340
3.906250	1.479373
3.906738	1.479413
3.907227	1.479539
3.907715	1.479612
3.908203	1.479440
3.908691	1.479575
3.909180	1.479395
3.909668	1.479161
3.910156	1.479490
3.910645	1.479514
3.911133	1.479337
3.911621	1.479333
3.912109	1.479446
3.912598	1.479379
3.913086	1.478889
3.913574	1.479160
3.914062	1.479124
3.914551	1.479186
3.915039	1.479069
3.915527	1.479005
3.916016	1.478930
3.916504	1.479118
3.916992	1.479019
3.917480	1.479172
3.917969	1.479063
3.918457	1.479172
3.918945	1.479096
3.919434	1.479194
3.919922	1.479090
3.920410	1.479316
3.920898	1.479333
3.921387	1.479440
3.921875	1.479534
3.922363	1.479492
3.922852	1.479413
3.923340	1.479234
3.923828	1.479674
3.924316	1.479225
3.924805	1.479241
3.925293	1.479197
3.925781	1.479338
3.926270	1.479041
3.926758	1.479508
3.927246	1.479261
3.927734	1.479568
3.928223	1.479385
3.928711	1.479293
3.929199	1.479080
3.929687	1.479182
3.930176	1.479136
3.930664	1.479064
3.931152	1.479089
3.931641	1.479105
3.932129	1.479104
3.932617	1.479080
3.933105	1.479164
3.933594	1.478997
3.934082	1.479226
3.934570	1.479275
3.935059	1.479246
3.935547	1.479154
3.936035	1.479349
3.936523	1.479313
3.937012	1.479561
3.937500	1.479299
3.937988	1.479556
3.938477	1.479341
3.938965	1.479155
3.939453	1.479193
3.939941	1.479042
3.940430	1.479279
3.940918	1.479174
3.941406	1.479417
3.941895	1.479301
3.942383	1.479090
3.942871	1.479112
3.943359	1.478990
3.943848	1.479182
3.944336	1.478761
3.944824	1.478851
3.945312	1.479091
3.945801	1.478809
3.946289	1.478772
3.946777	1.478776
3.947266	1.478746
3.947754	1.479111
3.948242	1.478867
3.948730	1.479061
3.949219	1.479145
3.949707	1.478927
3.950195	1.479205
3.950684	1.479051
3.951172	1.479171
3.951660	1.479353
3.952148	1.479202
3.952637	1.479640
3.953125	1.479118
3.953613	1.479190
3.954102	1.479426
3.954590	1.479288
3.955078	1.479298
3.955566	1.479254
3.956055	1.479452
3.956543	1.479416
3.957031	1.478980
3.957520	1.479227
3.958008	1.479072
3.958496	1.479154
3.958984	1.478886
3.959473	1.479136
3.959961	1.479232
3.960449	1.478910
3.960937	1.479011
3.961426	1.478976
3.961914	1.479235
3.962402	1.478960
3.962891	1.479009
3.963379	1.479260
3.963867	1.479167
3.964355	1.479161
3.964844	1.479303
3.965332	1.479229
3.965820	1.479099
3.966309	1.479044
3.966797	1.479315
3.967285	1.479302
3.967773	1.479299
3.968262	1.479342
3.968750	1.479441
3.969238	1.479445
3.969727	1.479395
3.970215	1.479497
3.970703	1.479255
3.971191	1.479411
3.971680	1.479506
3.972168	1.479310
3.972656	1.479285
3.973145	1.479053
3.973633	1.479108
3.974121	1.479097
3.974609	1.478888
3.975098	1.479055
3.975586	1.479038
3.976074	1.478896
3.976562	1.478845
3.977051	1.479050
3.977539	1.478999
3.978027	1.479234
3.978516	1.479044
3.979004	1.478937
3.979492	1.479035
3.979980	1.479212
3.980469	1.479165
3.980957	1.479164
3.981445	1.479291
3.981934	1.479455
3.982422	1.479217
3.982910	1.479302
3.983398	1.479320
3.983887	1.479532
3.984375	1.479587
3.984863	1.479393
3.985352	1.479594
3.985840	1.479379
3.986328	1.479246
3.986816	1.479476
3.987305	1.479135
3.987793	1.479313
3.988281	1.479249
3.988770	1.478965
3.989258	1.479176
3.989746	1.478974
3.990234	1.479052
3.990723	1.479375
3.991211	1.479032
3.991699	1.479221
3.992187	1.479161
3.992676	1.479110
3.993164	1.479157
3.993652	1.478961
3.994141	1.479140
3.994629	1.479072
3.995117	1.479227
3.995605	1.479386
3.996094	1.479357
3.996582	1.479346
3.997070	1.479676
3.997559	1.479583
3.998047	1.479487
3.998535	1.479425
3.999023	1.479503
3.999512	1.479520
4.000000	1.479354
4.000488	1.479394
4.000977	1.479432
4.001465	1.479500
4.001953	1.479312
4.002441	1.479193
4.002930	1.479288
4.003418	1.479371
4.003906	1.479340
4.004395	1.479472
4.004883	1.479273
4.005371	1.479177
4.005859	1.479079
4.006348	1.478976
4.006836	1.479349
4.007324	1.479219
4.007812	1.479133
4.008301	1.479309
4.008789	1.479087
4.009277	1.479258
4.009766	1.479365
4.010254	1.479482
4.010742	1.479363
4.011230	1.479295
4.011719	1.479747
4.012207	1.479547
4.012695	1.479222
4.013184	1.479569
4.013672	1.479323
4.014160	1.479540
4.014648	1.479412
4.015137	1.479612
4.015625	1.479723
4.016113	1.479200
4.016602	1.479504
4.017090	1.479301
4.017578	1.479170
4.018066	1.479226
4.018555	1.479360
4.019043	1.479207
4.019531	1.479164
4.020020	1.478942
4.020508	1.479176
4.020996	1.479020
4.021484	1.479148
4.021973	1.479154
4.022461	1.479106
4.022949	1.479267
4.023437	1.479230
4.023926	1.479033
4.024414	1.479350
4.024902	1.479083
4.025391	1.479057
4.025879	1.479088
4.026367	1.479198
4.026855	1.479238
4.027344	1.479254
4.027832	1.479424
4.028320	1.479294
4.028809	1.479305
4.029297	1.479384
4.029785	1.479356
4.030273	1.479330
4.030762	1.479352
4.031250	1.479332
4.031738	1.479307
4.032227	1.479429
4.032715	1.479373
4.033203	1.479269
4.033691	1.479349
4.034180	1.479006
4.034668	1.478891
4.035156	1.479091
4.035645	1.478886
4.036133	1.478983
4.036621	1.478936
4.037109	1.479170
4.037598	1.479036
4.038086	1.479118
4.038574	1.479044
4.039062	1.478963
4.039551	1.478898
4.040039	1.478836
4.040527	1.479193
4.041016	1.479042
4.041504	1.479321
4.041992	1.479343
4.042480	1.479140
4.042969	1.479326
4.043457	1.479343
4.043945	1.479385
4.044434	1.479246
4.044922	1.479163
4.045410	1.479526
4.045898	1.479459
4.046387	1.479489
4.046875	1.479285
4.047363	1.479226
4.047852	1.479486
4.048340	1.479287
4.048828	1.479283
4.049316	1.479239
4.049805	1.479370
4.050293	1.479266
4.050781	1.479244
4.051270	1.479179
4.051758	1.479221
4.052246	1.479156
4.052734	1.479408
4.053223	1.479053
4.053711	1.479041
4.054199	1.479058
4.054687	1.479022
4.055176	1.479256
4.055664	1.478900
4.056152	1.479457
4.056641	1.479280
4.057129	1.479376
4.057617	1.479420
4.058105	1.479312
4.058594	1.479415
4.059082	1.479292
4.059570	1.479360
4.060059	1.479522
4.060547	1.479361
4.061035	1.479379
4.061523	1.479490
4.062012	1.479523
4.062500	1.479194
4.062988	1.479356
4.063477	1.479300
4.063965	1.479107
4.064453	1.479268
4.064941	1.479160
4.065430	1.479184
4.065918	1.479359
4.066406	1.479244
4.066895	1.478974
4.067383	1.478932
4.067871	1.478940
4.068359	1.478900
4.068848	1.478877
4.069336	1.478814
4.069824	1.479106
4.070312	1.478935
4.070801	1.479128
4.071289	1.479294
4.071777	1.479170
4.072266	1.479202
4.072754	1.479160
4.073242	1.479232
4.073730	1.479199
4.074219	1.479244
4.074707	1.479240
4.075195	1.479327
4.075684	1.479229
4.076172	1.479479
4.076660	1.479306
4.077148	1.479330
4.077637	1.479182
4.078125	1.479282
4.078613	1.479193
4.079102	1.479288
4.079590	1.479163
4.080078	1.479197
4.080566	1.478882
4.081055	1.478853
4.081543	1.478905
4.082031	1.478952
4.082520	1.478806
4.083008	1.478970
4.083496	1.478914
4.083984	1.478852
4.084473	1.478930
4.084961	1.478858
4.085449	1.478629
4.085937	1.479073
4.086426	1.478908
4.086914	1.479047
4.087402	1.479086
4.087891	1.479083
4.088379	1.479293
4.088867	1.479327
4.089355	1.479343
4.089844	1.479029
4.090332	1.479290
4.090820	1.479407
4.091309	1.479322
4.091797	1.479587
4.092285	1.479402
4.092773	1.479097
4.093262	1.479204
4.093750	1.479246
4.094238	1.479199
4.094727	1.478653
4.095215	1.479005
4.095703	1.479076
4.096191	1.479080
4.096680	1.479137
4.097168	1.479068
4.097656	1.479004
4.098145	1.478964
4.098633	1.479071
4.099121	1.478933
4.099609	1.478938
4.100098	1.478891
4.100586	1.479014
4.101074	1.479144
4.101562	1.479251
4.102051	1.479319
4.102539	1.479173
4.103027	1.479444
4.103516	1.479405
4.104004	1.479298
4.104492	1.479509
4.104980	1.479238
4.105469	1.479632
4.105957	1.479396
4.106445	1.479608
4.106934	1.479382
4.107422	1.479283
4.107910	1.479442
4.108398	1.479277
4.108887	1.479271
4.109375	1.479303
4.109863	1.479207
4.110352	1.479359
4.110840	1.479190
4.111328	1.479022
4.111816	1.479194
4.112305	1.479208
4.112793	1.479173
4.113281	1.479042
4.113770	1.479474
4.114258	1.479165
4.114746	1.479032
4.115234	1.478972
4.115723	1.479110
4.116211	1.479130
4.116699	1.479332
4.117187	1.478965
4.117676	1.479036
4.118164	1.479417
4.118652	1.479267
4.119141	1.479334
4.119629	1.479284
4.120117	1.479301
4.120605	1.479340
4.121094	1.479369
4.121582	1.479477
4.122070	1.479484
4.122559	1.479444
4.123047	1.479398
4.123535	1.479370
4.124023	1.479351
4.124512	1.479258
4.125000	1.479180
4.125488	1.478999
4.125977	1.479084
4.126465	1.479042
4.126953	1.479104
4.127441	1.478962
4.127930	1.478920
4.128418	1.478675
4.128906	1.478923
4.129395	1.479035
4.129883	1.478933
4.130371	1.478781
4.130859	1.479000
4.131348	1.478926
4.131836	1.479310
4.132324	1.479050
4.132812	1.479196
4.133301	1.479185
4.133789	1.479346
4.134277	1.479235
4.134766	1.479484
4.135254	1.479171
4.135742	1.479681
4.136230	1.479376
4.136719	1.479074
4.137207	1.479447
4.137695	1.479373
4.138184	1.479271
4.138672	1.479356
4.139160	1.479265
4.139648	1.479136
4.140137	1.479367
4.140625	1.479007
4.141113	1.479243
4.141602	1.479099
4.142090	1.479261
4.142578	1.479120
4.143066	1.479118
4.143555	1.479133
4.144043	1.478939
4.144531	1.479176
4.145020	1.479138
4.145508	1.479002
4.145996	1.479222
4.146484	1.479031
4.146973	1.479013
4.147461	1.479111
4.147949	1.479024
4.148437	1.479282
4.148926	1.479422
4.149414	1.479271
4.149902	1.479211
4.150391	1.479278
4.150879	1.479336
4.151367	1.479259
4.151855	1.479484
4.152344	1.479355
4.152832	1.479489
4.153320	1.479642
4.153809	1.479547
4.154297	1.479701
4.154785	1.479381
4.155273	1.479177
4.155762	1.479211
4.156250	1.479300
4.156738	1.479281
4.157227	1.479369
4.157715	1.479087
4.158203	1.479302
4.158691	1.479158
4.159180	1.479109
4.159668	1.479152
4.160156	1.479141
4.160645	1.479087
4.161133	1.479125
4.161621	1.479315
4.162109	1.479315
4.162598	1.479141
4.163086	1.479307
4.163574	1.479331
4.164062	1.479538
4.164551	1.479276
4.165039	1.479448
4.165527	1.479233
4.166016	1.479243
4.166504	1.479429
4.166992	1.479418
4.167480	1.479450
4.167969	1.479272
4.168457	1.479430
4.168945	1.479440
4.169434	1.479125
4.169922	1.479255
4.170410	1.479149
4.170898	1.479133
4.171387	1.479088
4.171875	1.478980
4.172363	1.478798
4.172852	1.478850
4.173340	1.478877
4.173828	1.478877
4.174316	1.478955
4.174805	1.479021
4.175293	1.478958
4.175781	1.478698
4.176270	1.478961
4.176758	1.478906
4.177246	1.479000
4.177734	1.479321
4.178223	1.479213
4.178711	1.479150
4.179199	1.479324
4.179687	1.479276
4.180176	1.479352
4.180664	1.479329
4.181152	1.479314
4.181641	1.479594
4.182129	1.479202
4.182617	1.479309
4.183105	1.479451
4.183594	1.479397
4.184082	1.479458
4.184570	1.479298
4.185059	1.479323
4.185547	1.479064
4.186035	1.479251
4.186523	1.479071
4.187012	1.479239
4.187500	1.479221
4.187988	1.478914
4.188477	1.479130
4.188965	1.479293
4.189453	1.479083
4.189941	1.478896
4.190430	1.479266
4.190918	1.479163
4.191406	1.479259
4.191895	1.479349
4.192383	1.479341
4.192871	1.479285
4.193359	1.479506
4.193848	1.479349
4.194336	1.479680
4.194824	1.479190
4.195312	1.479331
4.195801	1.479517
4.196289	1.479320
4.196777	1.479502
4.197266	1.479478
4.197754	1.479666
4.198242	1.479674
4.198730	1.479523
4.199219	1.479539
4.199707	1.479461
4.200195	1.479461
4.200684	1.479595
4.201172	1.479468
4.201660	1.479714
4.202148	1.479426
4.202637	1.479262
4.203125	1.479234
4.203613	1.479272
4.204102	1.479155
4.204590	1.479129
4.205078	1.479431
4.205566	1.479130
4.206055	1.479271
4.206543	1.479238
4.207031	1.478955
4.207520	1.479462
4.208008	1.479411
4.208496	1.479290
4.208984	1.479186
4.209473	1.479526
4.209961	1.479450
4.210449	1.479614
4.210937	1.479441
4.211426	1.479663
4.211914	1.479704
4.212402	1.479354
4.212891	1.479532
4.213379	1.479655
4.213867	1.479684
4.214355	1.479545
4.214844	1.479349
4.215332	1.479434
4.215820	1.479235
4.216309	1.478993
4.216797	1.479287
4.217285	1.479129
4.217773	1.479119
4.218262	1.479136
4.218750	1.479175
4.219238	1.478972
4.219727	1.479244
4.220215	1.479008
4.220703	1.479300
4.221191	1.479264
4.221680	1.479466
4.222168	1.479338
4.222656	1.479285
4.223145	1.479360
4.223633	1.479382
4.224121	1.479290
4.224609	1.479503
4.225098	1.479370
4.225586	1.479345
4.226074	1.479406
4.226562	1.479239
4.227051	1.479653
4.227539	1.479481
4.228027	1.479575
4.228516	1.479546
4.229004	1.479370
4.229492	1.479478
4.229980	1.479553
4.230469	1.479388
4.230957	1.479043
4.231445	1.479541
4.231934	1.479514
4.232422	1.479265
4.232910	1.479375
4.233398	1.479055
4.233887	1.479236
4.234375	1.479460
4.234863	1.479167
4.235352	1.479387
4.235840	1.479279
4.236328	1.479424
4.236816	1.479171
4.237305	1.479287
4.237793	1.479357
4.238281	1.479589
4.238770	1.479483
4.239258	1.479505
4.239746	1.479398
4.240234	1.479625
4.240723	1.479482
4.241211	1.479567
4.241699	1.479831
4.242187	1.479574
4.242676	1.479752
4.243164	1.479595
4.243652	1.479666
4.244141	1.479752
4.244629	1.479374
4.245117	1.479583
4.245605	1.479464
4.246094	1.479685
4.246582	1.479428
4.247070	1.479635
4.247559	1.479360
4.248047	1.479626
4.248535	1.479518
4.249023	1.479596
4.249512	1.479465
4.250000	1.479282
4.250488	1.479537
4.250977	1.479223
4.251465	1.479459
4.251953	1.479553
4.252441	1.479340
4.252930	1.479576
4.253418	1.479389
4.253906	1.479661
4.254395	1.479435
4.254883	1.479284
4.255371	1.479769
4.255859	1.479598
4.256348	1.479580
4.256836	1.479705
4.257324	1.479856
4.257812	1.479684
4.258301	1.479672
4.258789	1.479522
4.259277	1.479636
4.259766	1.479465
4.260254	1.479536
4.260742	1.479531
4.261230	1.479518
4.261719	1.479449
4.262207	1.479398
4.262695	1.479281
4.263184	1.479262
4.263672	1.478998
4.264160	1.479133
4.264648	1.479199
4.265137	1.479067
4.265625	1.479240
4.266113	1.479112
4.266602	1.479157
4.267090	1.479127
4.267578	1.479078
4.268066	1.479141
4.268555	1.479253
4.269043	1.479088
4.269531	1.479315
4.270020	1.479278
4.270508	1.479423
4.270996	1.479523
4.271484	1.479050
4.271973	1.479544
4.272461	1.479424
4.272949	1.479341
4.273437	1.479337
4.273926	1.479319
4.274414	1.479327
4.274902	1.479210
4.275391	1.479135
4.275879	1.479367
4.276367	1.479290
4.276855	1.479202
4.277344	1.479279
4.277832	1.479091
4.278320	1.479108
4.278809	1.479317
4.279297	1.478988
4.279785	1.478965
4.280273	1.479025
4.280762	1.478997
4.281250	1.478927
4.281738	1.479210
4.282227	1.479055
4.282715	1.479077
4.283203	1.479263
4.283691	1.479352
4.284180	1.479178
4.284668	1.479285
4.285156	1.479155
4.285645	1.479420
4.286133	1.479362
4.286621	1.479411
4.287109	1.479423
4.287598	1.479672
4.288086	1.479387
4.288574	1.479540
4.289062	1.479607
4.289551	1.479518
4.290039	1.479624
4.290527	1.479475
4.291016	1.479523
4.291504	1.479568
4.291992	1.479667
4.292480	1.479301
4.292969	1.479312
4.293457	1.479535
4.293945	1.479396
4.294434	1.479119
4.294922	1.479348
4.295410	1.478995
4.295898	1.479241
4.296387	1.479036
4.296875	1.479237
4.297363	1.479152
4.297852	1.479222
4.298340	1.479099
4.298828	1.479369
4.299316	1.479188
4.299805	1.479413
4.300293	1.479482
4.300781	1.479493
4.301270	1.479628
4.301758	1.479646
4.302246	1.479615
4.302734	1.479624
4.303223	1.479593
4.303711	1.479504
4.304199	1.479655
4.304687	1.479482
4.305176	1.479466
4.305664	1.479422
4.306152	1.479540
4.306641	1.479429
4.307129	1.479379
4.307617	1.479501
4.308105	1.479152
4.308594	1.479222
4.309082	1.479329
4.309570	1.479197
4.310059	1.479144
4.310547	1.479127
4.311035	1.479370
4.311523	1.479507
4.312012	1.478997
4.312500	1.479229
4.312988	1.478978
4.313477	1.479083
4.313965	1.479257
4.314453	1.479301
4.314941	1.479254
4.315430	1.479161
4.315918	1.479403
4.316406	1.479452
4.316895	1.479434
4.317383	1.479379
4.317871	1.479323
4.318359	1.479550
4.318848	1.479502
4.319336	1.479359
4.319824	1.479341
4.320312	1.479393
4.320801	1.479359
4.321289	1.479588
4.321777	1.479367
4.322266	1.479424
4.322754	1.479302
4.323242	1.479408
4.323730	1.479180
4.324219	1.479194
4.324707	1.479141
4.325195	1.478945
4.325684	1.479221
4.326172	1.479130
4.326660	1.479136
4.327148	1.479041
4.327637	1.479160
4.328125	1.479103
4.328613	1.479121
4.329102	1.479143
4.329590	1.479082
4.330078	1.479393
4.330566	1.479304
4.331055	1.479392
4.331543	1.479449
4.332031	1.479578
4.332520	1.479398
4.333008	1.479363
4.333496	1.479416
4.333984	1.479190
4.334473	1.479475
4.334961	1.479030
4.335449	1.479192
4.335937	1.479235
4.336426	1.479443
4.336914	1.479149
4.337402	1.479374
4.337891	1.479279
4.338379	1.479288
4.338867	1.479126
4.339355	1.479319
4.339844	1.479044
4.340332	1.479082
4.340820	1.479161
4.341309	1.479146
4.341797	1.478996
4.342285	1.479057
4.342773	1.478793
4.343262	1.478833
4.343750	1.479118
4.344238	1.478921
4.344727	1.478997
4.345215	1.478980
4.345703	1.479074
4.346191	1.478970
4.346680	1.479445
4.347168	1.479183
4.347656	1.479572
4.348145	1.479417
4.348633	1.479503
4.349121	1.479202
4.349609	1.479387
4.350098	1.479409
4.350586	1.479320
4.351074	1.479226
4.351562	1.479464
4.352051	1.479206
4.352539	1.479045
4.353027	1.479235
4.353516	1.479176
4.354004	1.478931
4.354492	1.478976
4.354980	1.478803
4.355469	1.478782
4.355957	1.478935
4.356445	1.478678
4.356934	1.478936
4.357422	1.478914
4.357910	1.478917
4.358398	1.479071
4.358887	1.478895
4.359375	1.478844
4.359863	1.478988
4.360352	1.478992
4.360840	1.479032
4.361328	1.478959
4.361816	1.479049
4.362305	1.479132
4.362793	1.479011
4.363281	1.479143
4.363770	1.479216
4.364258	1.479058
4.364746	1.479201
4.365234	1.478941
4.365723	1.479168
4.366211	1.478836
4.366699	1.479125
4.367187	1.478855
4.367676	1.478907
4.368164	1.478940
4.368652	1.478971
4.369141	1.478712
4.369629	1.478714
4.370117	1.478718
4.370605	1.478579
4.371094	1.478797
4.371582	1.478724
4.372070	1.478960
4.372559	1.478828
4.373047	1.478709
4.373535	1.478924
4.374023	1.478856
4.374512	1.478928
4.375000	1.478800
4.375488	1.478864
4.375977	1.478726
4.376465	1.478944
4.376953	1.479089
4.377441	1.479219
4.377930	1.479095
4.378418	1.479127
4.378906	1.479064
4.379395	1.479335
4.379883	1.479312
4.380371	1.479293
4.380859	1.479338
4.381348	1.479124
4.381836	1.479451
4.382324	1.479017
4.382812	1.479161
4.383301	1.479074
4.383789	1.478986
4.384277	1.479145
4.384766	1.478853
4.385254	1.479220
4.385742	1.478983
4.386230	1.478902
4.386719	1.478994
4.387207	1.479051
4.387695	1.478952
4.388184	1.479094
4.388672	1.478879
4.389160	1.479076
4.389648	1.478994
4.390137	1.479135
4.390625	1.479080
4.391113	1.479120
4.391602	1.479255
4.392090	1.479481
4.392578	1.479076
4.393066	1.479431
4.393555	1.479538
4.394043	1.479552
4.394531	1.479561
4.395020	1.479349
4.395508	1.479413
4.395996	1.479291
4.396484	1.479411
4.396973	1.479371
4.397461	1.479260
4.397949	1.479326
4.398437	1.479326
4.398926	1.479127
4.399414	1.479166
4.399902	1.479002
4.400391	1.479233
4.400879	1.479028
4.401367	1.479161
4.401855	1.479282
4.402344	1.479140
4.402832	1.479104
4.403320	1.478946
4.403809	1.479111
4.404297	1.479225
4.404785	1.479193
4.405273	1.479390
4.405762	1.479174
4.406250	1.479327
4.406738	1.479230
4.407227	1.479320
4.407715	1.479399
4.408203	1.479395
4.408691	1.479451
4.409180	1.479506
4.409668	1.479570
4.410156	1.479467
4.410645	1.479554
4.411133	1.479723
4.411621	1.479571
4.412109	1.479412
4.412598	1.479519
4.413086	1.479388
4.413574	1.479085
4.414062	1.479313
4.414551	1.479196
4.415039	1.479322
4.415527	1.479221
4.416016	1.479188
4.416504	1.479052
4.416992	1.479147
4.417480	1.479096
4.417969	1.479233
4.418457	1.479031
4.418945	1.479222
4.419434	1.479200
4.419922	1.479241
4.420410	1.479047
4.420898	1.479227
4.421387	1.479401
4.421875	1.479388
4.422363	1.479351
4.422852	1.479337
4.423340	1.479277
4.423828	1.479171
4.424316	1.479475
4.424805	1.479401
4.425293	1.479415
4.425781	1.479230
4.426270	1.479704
4.426758	1.479476
4.427246	1.479078
4.427734	1.479404
4.428223	1.479179
4.428711	1.479160
4.429199	1.479118
4.429687	1.479066
4.430176	1.479031
4.430664	1.479239
4.431152	1.478973
4.431641	1.479080
4.432129	1.479207
4.432617	1.479139
4.433105	1.478923
4.433594	1.479100
4.434082	1.479044
4.434570	1.479155
4.435059	1.479023
4.435547	1.479033
4.436035	1.479296
4.436523	1.478948
4.437012	1.479529
4.437500	1.479412
4.437988	1.479421
4.438477	1.479612
4.438965	1.479298
4.439453	1.479494
4.439941	1.479362
4.440430	1.479442
4.440918	1.479329
4.441406	1.479578
4.441895	1.479457
4.442383	1.479463
4.442871	1.479431
4.443359	1.479564
4.443848	1.479329
4.444336	1.479402
4.444824	1.479183
4.445312	1.479036
4.445801	1.479077
4.446289	1.479098
4.446777	1.479105
4.447266	1.478939
4.447754	1.479149
4.448242	1.478894
4.448730	1.478965
4.449219	1.479080
4.449707	1.479019
4.450195	1.479204
4.450684	1.478980
4.451172	1.479048
4.451660	1.479288
4.452148	1.479254
4.452637	1.479083
4.453125	1.479320
4.453613	1.479315
4.454102	1.479308
4.454590	1.479290
4.455078	1.479141
4.455566	1.479118
4.456055	1.479116
4.456543	1.479075
4.457031	1.479352
4.457520	1.479005
4.458008	1.479329
4.458496	1.479280
4.458984	1.479153
4.459473	1.479133
4.459961	1.479030
4.460449	1.479103
4.460937	1.478899
4.461426	1.478920
4.461914	1.478969
4.462402	1.478972
4.462891	1.478983
4.463379	1.478764
4.463867	1.479104
4.464355	1.478956
4.464844	1.478915
4.465332	1.478814
4.465820	1.479005
4.466309	1.478664
4.466797	1.479011
4.467285	1.478763
4.467773	1.478823
4.468262	1.479060
4.468750	1.479183
4.469238	1.479102
4.469727	1.479098
4.470215	1.479251
4.470703	1.479262
4.471191	1.479362
4.471680	1.479432
4.472168	1.479457
4.472656	1.479199
4.473145	1.479225
4.473633	1.479515
4.474121	1.479403
4.474609	1.479175
4.475098	1.479213
4.475586	1.478925
4.476074	1.479016
4.476562	1.478761
4.477051	1.478970
4.477539	1.478828
4.478027	1.479055
4.478516	1.478884
4.479004	1.479020
4.479492	1.478997
4.479980	1.478862
4.480469	1.478964
4.480957	1.479025
4.481445	1.479086
4.481934	1.479152
4.482422	1.479258
4.482910	1.479262
4.483398	1.479150
4.483887	1.479428
4.484375	1.479490
4.484863	1.479215
4.485352	1.479222
4.485840	1.479231
4.486328	1.479415
4.486816	1.479223
4.487305	1.479478
4.487793	1.479464
4.488281	1.479176
4.488770	1.479230
4.489258	1.479382
4.489746	1.479166
4.490234	1.479379
4.490723	1.479346
4.491211	1.479200
4.491699	1.479212
4.492187	1.479193
4.492676	1.479276
4.493164	1.479356
4.493652	1.479218
4.494141	1.479337
4.494629	1.479136
4.495117	1.479090
4.495605	1.479173
4.496094	1.479364
4.496582	1.479433
4.497070	1.479363
4.497559	1.479355
4.498047	1.479503
4.498535	1.479506
4.499023	1.479543
4.499512	1.479481
4.500000	1.479449
4.500488	1.479819
4.500977	1.479467
4.501465	1.479540
4.501953	1.479713
4.502441	1.479426
4.502930	1.479700
4.503418	1.479456
4.503906	1.479788
4.504395	1.479611
4.504883	1.479057
4.505371	1.479529
4.505859	1.479144
4.506348	1.479272
4.506836	1.479305
4.507324	1.479403
4.507812	1.479236
4.508301	1.479437
4.508789	1.479410
4.509277	1.479072
4.509766	1.479154
4.510254	1.479193
4.510742	1.479188
4.511230	1.479387
4.511719	1.479325
4.512207	1.479664
4.512695	1.479139
4.513184	1.479237
4.513672	1.479433
4.514160	1.479417
4.514648	1.479349
4.515137	1.479315
4.515625	1.479565
4.516113	1.479489
4.516602	1.479318
4.517090	1.479489
4.517578	1.479335
4.518066	1.479507
4.518555	1.479554
4.519043	1.479464
4.519531	1.479522
4.520020	1.479248
4.520508	1.479388
4.520996	1.479175
4.521484	1.479428
4.521973	1.479308
4.522461	1.479244
4.522949	1.479041
4.523437	1.479222
4.523926	1.478967
4.524414	1.479203
4.524902	1.479017
4.525391	1.478941
4.525879	1.479002
4.526367	1.479216
4.526855	1.479014
4.527344	1.479219
4.527832	1.479273
4.528320	1.479074
4.528809	1.479348
4.529297	1.479351
4.529785	1.479361
4.530273	1.478992
4.530762	1.479486
4.531250	1.479307
4.531738	1.479481
4.532227	1.479584
4.532715	1.479311
4.533203	1.479373
4.533691	1.479273
4.534180	1.479382
4.534668	1.479354
4.535156	1.478980
4.535645	1.479417
4.536133	1.479359
4.536621	1.479072
4.537109	1.479400
4.537598	1.479242
4.538086	1.479166
4.538574	1.479164
4.539062	1.479176
4.539551	1.479116
4.540039	1.479227
4.540527	1.479124
4.541016	1.479268
4.541504	1.479338
4.541992	1.479316
4.542480	1.479389
4.542969	1.479388
4.543457	1.479455
4.543945	1.479216
4.544434	1.479409
4.544922	1.479305
4.545410	1.479331
4.545898	1.479535
4.546387	1.479250
4.546875	1.479385
4.547363	1.479441
4.547852	1.479420
4.548340	1.479365
4.548828	1.479199
4.549316	1.479281
4.549805	1.479262
4.550293	1.479066
4.550781	1.479084
4.551270	1.479254
4.551758	1.479132
4.552246	1.479249
4.552734	1.478971
4.553223	1.479289
4.553711	1.478970
4.554199	1.478846
4.554687	1.479002
4.555176	1.478713
4.555664	1.479116
4.556152	1.479126
4.556641	1.479227
4.557129	1.479202
4.557617	1.478983
4.558105	1.479157
4.558594	1.479125
4.559082	1.479293
4.559570	1.479143
4.560059	1.479110
4.560547	1.479369
4.561035	1.479435
4.561523	1.479174
4.562012	1.479495
4.562500	1.479410
4.562988	1.479194
4.563477	1.479069
4.563965	1.479433
4.564453	1.479316
4.564941	1.479295
4.565430	1.479324
4.565918	1.479230
4.566406	1.479059
4.566895	1.478894
4.567383	1.479008
4.567871	1.478965
4.568359	1.479035
4.568848	1.478837
4.569336	1.479036
4.569824	1.478924
4.570312	1.479244
4.570801	1.479060
4.571289	1.478848
4.571777	1.479209
4.572266	1.479105
4.572754	1.479200
4.573242	1.479202
4.573730	1.479275
4.574219	1.479393
4.574707	1.479254
4.575195	1.479279
4.575684	1.479413
4.576172	1.479453
4.576660	1.479411
4.577148	1.479236
4.577637	1.479377
4.578125	1.479387
4.578613	1.479152
4.579102	1.479379
4.579590	1.479122
4.580078	1.479300
4.580566	1.479219
4.581055	1.479129
4.581543	1.479030
4.582031	1.479201
4.582520	1.479103
4.583008	1.479112
4.583496	1.479263
4.583984	1.478916
4.584473	1.479081
4.584961	1.478857
4.585449	1.479054
4.585937	1.478956
4.586426	1.479065
4.586914	1.479147
4.587402	1.479012
4.587891	1.479131
4.588379	1.479024
4.588867	1.479046
4.589355	1.479443
4.589844	1.479212
4.590332	1.479542
4.590820	1.479437
4.591309	1.479612
4.591797	1.479647
4.592285	1.479526
4.592773	1.479533
4.593262	1.479617
4.593750	1.479341
4.594238	1.479684
4.594727	1.479416
4.595215	1.479179
4.595703	1.479288
4.596191	1.479450
4.596680	1.479301
4.597168	1.479443
4.597656	1.479154
4.598145	1.479326
4.598633	1.479019
4.599121	1.479263
4.599609	1.479107
4.600098	1.478989
4.600586	1.479119
4.601074	1.479215
4.601562	1.479194
4.602051	1.479255
4.602539	1.479290
4.603027	1.479448
4.603516	1.479482
4.604004	1.479470
4.604492	1.479556
4.604980	1.479532
4.605469	1.479377
4.605957	1.479539
4.606445	1.479518
4.606934	1.479478
4.607422	1.479421
4.607910	1.479690
4.608398	1.479645
4.608887	1.479498
4.609375	1.479638
4.609863	1.479672
4.610352	1.479540
4.610840	1.479448
4.611328	1.479304
4.611816	1.479544
4.612305	1.479077
4.612793	1.479176
4.613281	1.479266
4.613770	1.479135
4.614258	1.479382
4.614746	1.478934
4.615234	1.479491
4.615723	1.479249
4.616211	1.478970
4.616699	1.479109
4.617187	1.478986
4.617676	1.479251
4.618164	1.479244
4.618652	1.479222
4.619141	1.479270
4.619629	1.479299
4.620117	1.479283
4.620605	1.479564
4.621094	1.479318
4.621582	1.479601
4.622070	1.479509
4.622559	1.479417
4.623047	1.479423
4.623535	1.479678
4.624023	1.479402
4.624512	1.479276
4.625000	1.479432
4.625488	1.479354
4.625977	1.479360
4.626465	1.479358
4.626953	1.479409
4.627441	1.479219
4.627930	1.478945
4.628418	1.479129
4.628906	1.479241
4.629395	1.479211
4.629883	1.479393
4.630371	1.479221
4.630859	1.479263
4.631348	1.479136
4.631836	1.479214
4.632324	1.479112
4.632812	1.479034
4.633301	1.479459
4.633789	1.479394
4.634277	1.479489
4.634766	1.479258
4.635254	1.479574
4.635742	1.479308
4.636230	1.479163
4.636719	1.479394
4.637207	1.479314
4.637695	1.479511
4.638184	1.479384
4.638672	1.479506
4.639160	1.479419
4.639648	1.479457
4.640137	1.479413
4.640625	1.479081
4.641113	1.479279
4.641602	1.479408
4.642090	1.479384
4.642578	1.479259
4.643066	1.479172
4.643555	1.479665
4.644043	1.478851
4.644531	1.479014
4.645020	1.478934
4.645508	1.478974
4.645996	1.479058
4.646484	1.478955
4.646973	1.479199
4.647461	1.479048
4.647949	1.479197
4.648437	1.479108
4.648926	1.478939
4.649414	1.479371
4.649902	1.479129
4.650391	1.479335
4.650879	1.479345
4.651367	1.479441
4.651855	1.479708
4.652344	1.479300
4.652832	1.479436
4.653320	1.479296
4.653809	1.479420
4.654297	1.479406
4.654785	1.479249
4.655273	1.479476
4.655762	1.479255
4.656250	1.479075
4.656738	1.479038
4.657227	1.479266
4.657715	1.479157
4.658203	1.479063
4.658691	1.478811
4.659180	1.478911
4.659668	1.478970
4.660156	1.478979
4.660645	1.479016
4.661133	1.478925
4.661621	1.479233
4.662109	1.479104
4.662598	1.479111
4.663086	1.479041
4.663574	1.479102
4.664062	1.479384
4.664551	1.479322
4.665039	1.479363
4.665527	1.479615
4.666016	1.479132
4.666504	1.479446
4.666992	1.479310
4.667480	1.479324
4.667969	1.479385
4.668457	1.479312
4.668945	1.479782
4.669434	1.479332
4.669922	1.479395
4.670410	1.479370
4.670898	1.479258
4.671387	1.479093
4.671875	1.479279
4.672363	1.479240
4.672852	1.479024
4.673340	1.479382
4.673828	1.479194
4.674316	1.478941
4.674805	1.478922
4.675293	1.478963
4.675781	1.479039
4.676270	1.478950
4.676758	1.479203
4.677246	1.479309
4.677734	1.479190
4.678223	1.479377
4.678711	1.479147
4.679199	1.479235
4.679687	1.479351
4.680176	1.479560
4.680664	1.479415
4.681152	1.479625
4.681641	1.479486
4.682129	1.479573
4.682617	1.479483
4.683105	1.479692
4.683594	1.479797
4.684082	1.479553
4.684570	1.479816
4.685059	1.479260
4.685547	1.479522
4.686035	1.479450
4.686523	1.479409
4.687012	1.479360
4.687500	1.479337
4.687988	1.479229
4.688477	1.479255
4.688965	1.479368
4.689453	1.479225
4.689941	1.479502
4.690430	1.479387
4.690918	1.479428
4.691406	1.479316
4.691895	1.479533
4.692383	1.479373
4.692871	1.479517
4.693359	1.479381
4.693848	1.479501
4.694336	1.479387
4.694824	1.479583
4.695312	1.479349
4.695801	1.479354
4.696289	1.479427
4.696777	1.479837
4.697266	1.479529
4.697754	1.479681
4.698242	1.479673
4.698730	1.479797
4.699219	1.479808
4.699707	1.479735
4.700195	1.479618
4.700684	1.479559
4.701172	1.479745
4.701660	1.479493
4.702148	1.479498
4.702637	1.479382
4.703125	1.479526
4.703613	1.479265
4.704102	1.479435
4.704590	1.479442
4.705078	1.479329
4.705566	1.479561
4.706055	1.479129
4.706543	1.479065
4.707031	1.479291
4.707520	1.479313
4.708008	1.479264
4.708496	1.479253
4.708984	1.479442
4.709473	1.479522
4.709961	1.479240
4.710449	1.479523
4.710937	1.479528
4.711426	1.479638
4.711914	1.479675
4.712402	1.479581
4.712891	1.479435
4.713379	1.479777
4.713867	1.479393
4.714355	1.479648
4.714844	1.479413
4.715332	1.479517
4.715820	1.479667
4.716309	1.479367
4.716797	1.479373
4.717285	1.479379
4.717773	1.479476
4.718262	1.479381
4.718750	1.479370
4.719238	1.479021
4.719727	1.479332
4.720215	1.479219
4.720703	1.479152
4.721191	1.479319
4.721680	1.479279
4.722168	1.479357
4.722656	1.479326
4.723145	1.479205
4.723633	1.479237
4.724121	1.479328
4.724609	1.479376
4.725098	1.479404
4.725586	1.479455
4.726074	1.479417
4.726562	1.479460
4.727051	1.479522
4.727539	1.479398
4.728027	1.479313
4.728516	1.479476
4.729004	1.479507
4.729492	1.479597
4.729980	1.479424
4.730469	1.479573
4.730957	1.479261
4.731445	1.479597
4.731934	1.479387
4.732422	1.479170
4.732910	1.479198
4.733398	1.479318
4.733887	1.478969
4.734375	1.479268
4.734863	1.479219
4.735352	1.479074
4.735840	1.479259
4.736328	1.479057
4.736816	1.479165
4.737305	1.478845
4.737793	1.479141
4.738281	1.478815
4.738770	1.478939
4.739258	1.479243
4.739746	1.479180
4.740234	1.479224
4.740723	1.479075
4.741211	1.479172
4.741699	1.479317
4.742187	1.479681
4.742676	1.479249
4.743164	1.479414
4.743652	1.479360
4.744141	1.479268
4.744629	1.479427
4.745117	1.479304
4.745605	1.479268
4.746094	1.479136
4.746582	1.479529
4.747070	1.479248
4.747559	1.479307
4.748047	1.479252
4.748535	1.479101
4.749023	1.479161
4.749512	1.478952
4.750000	1.479117
4.750488	1.479116
4.750977	1.479038
4.751465	1.479033
4.751953	1.479316
4.752441	1.479229
4.752930	1.479202
4.753418	1.479176
4.753906	1.479141
4.754395	1.479031
4.754883	1.478849
4.755371	1.479295
4.755859	1.479087
4.756348	1.479384
4.756836	1.479331
4.757324	1.479517
4.757812	1.479498
4.758301	1.479430
4.758789	1.479317
4.759277	1.479320
4.759766	1.479418
4.760254	1.479508
4.760742	1.479412
4.761230	1.479133
4.761719	1.479540
4.762207	1.478992
4.762695	1.479249
4.763184	1.478999
4.763672	1.479356
4.764160	1.479570
4.764648	1.478963
4.765137	1.479094
4.765625	1.479035
4.766113	1.479161
4.766602	1.478882
4.767090	1.478949
4.767578	1.478891
4.768066	1.479031
4.768555	1.478915
4.769043	1.479055
4.769531	1.478992
4.770020	1.479001
4.770508	1.479094
4.770996	1.479005
4.771484	1.479042
4.771973	1.479426
4.772461	1.479071
4.772949	1.479586
4.773437	1.479193
4.773926	1.479530
4.774414	1.479678
4.774902	1.479176
4.775391	1.479209
4.775879	1.479357
4.776367	1.479412
4.776855	1.479562
4.777344	1.479275
4.777832	1.479277
4.778320	1.479059
4.778809	1.479050
4.779297	1.479127
4.779785	1.478743
4.780273	1.479051
4.780762	1.479019
4.781250	1.479002
4.781738	1.479050
4.782227	1.478950
4.782715	1.479134
4.783203	1.478724
4.783691	1.478858
4.784180	1.479093
4.784668	1.479039
4.785156	1.478956
4.785645	1.479235
4.786133	1.479000
4.786621	1.479444
4.787109	1.479222
4.787598	1.479484
4.788086	1.479622
4.788574	1.479187
4.789062	1.479380
4.789551	1.479251
4.790039	1.479423
4.790527	1.479374
4.791016	1.479393
4.791504	1.479361
4.791992	1.479544
4.792480	1.479236
4.792969	1.479291
4.793457	1.479257
4.793945	1.479254
4.794434	1.479230
4.794922	1.479276
4.795410	1.479110
4.795898	1.479064
4.796387	1.479105
4.796875	1.479120
4.797363	1.479013
4.797852	1.478895
4.798340	1.479235
4.798828	1.479170
4.799316	1.479069
4.799805	1.479311
4.800293	1.479061
4.800781	1.479273
4.801270	1.479246
4.801758	1.479498
4.802246	1.479357
4.802734	1.479369
4.803223	1.479295
4.803711	1.479481
4.804199	1.479476
4.804687	1.479406
4.805176	1.479535
4.805664	1.479395
4.806152	1.479558
4.806641	1.479332
4.807129	1.479373
4.807617	1.479151
4.808105	1.479041
4.808594	1.479274
4.809082	1.479314
4.809570	1.479143
4.810059	1.479077
4.810547	1.478936
4.811035	1.479086
4.811523	1.479348
4.812012	1.479140
4.812500	1.479174
4.812988	1.479142
4.813477	1.479125
4.813965	1.478964
4.814453	1.479024
4.814941	1.479009
4.815430	1.478807
4.815918	1.479438
4.816406	1.478988
4.816895	1.479214
4.817383	1.479373
4.817871	1.479361
4.818359	1.479251
4.818848	1.479333
4.819336	1.479328
4.819824	1.479277
4.820312	1.479293
4.820801	1.479334
4.821289	1.479249
4.821777	1.479401
4.822266	1.479289
4.822754	1.479230
4.823242	1.479088
4.823730	1.479382
4.824219	1.479293
4.824707	1.478945
4.825195	1.478981
4.825684	1.478970
4.826172	1.479130
4.826660	1.478892
4.827148	1.479062
4.827637	1.478819
4.828125	1.478814
4.828613	1.479028
4.829102	1.479084
4.829590	1.479063
4.830078	1.479111
4.830566	1.479234
4.831055	1.479243
4.831543	1.478972
4.832031	1.479293
4.832520	1.479153
4.833008	1.479368
4.833496	1.479237
4.833984	1.479412
4.834473	1.479459
4.834961	1.479323
4.835449	1.479329
4.835937	1.479244
4.836426	1.479201
4.836914	1.479247
4.837402	1.479233
4.837891	1.479294
4.838379	1.479248
4.838867	1.479174
4.839355	1.479290
4.839844	1.479238
4.840332	1.479024
4.840820	1.479224
4.841309	1.479141
4.841797	1.479154
4.842285	1.479059
4.842773	1.479164
4.843262	1.479472
4.843750	1.479193
4.844238	1.479039
4.844727	1.479364
4.845215	1.479102
4.845703	1.479269
4.846191	1.479517
4.846680	1.479185
4.847168	1.479218
4.847656	1.479277
4.848145	1.479315
4.848633	1.479360
4.849121	1.479155
4.849609	1.479439
4.850098	1.479273
4.850586	1.479548
4.851074	1.479471
4.851562	1.479409
4.852051	1.479489
4.852539	1.479284
4.853027	1.479494
4.853516	1.479288
4.854004	1.479477
4.854492	1.479500
4.854980	1.479199
4.855469	1.479406
4.855957	1.479342
4.856445	1.479125
4.856934	1.479315
4.857422	1.479088
4.857910	1.479340
4.858398	1.479177
4.858887	1.479017
4.859375	1.478970
4.859863	1.479099
4.860352	1.479310
4.860840	1.479186
4.861328	1.479221
4.861816	1.479516
4.862305	1.479182
4.862793	1.479351
4.863281	1.479397
4.863770	1.479316
4.864258	1.479730
4.864746	1.479348
4.865234	1.479835
4.865723	1.479708
4.866211	1.479622
4.866699	1.479528
4.867187	1.479663
4.867676	1.479586
4.868164	1.479509
4.868652	1.479341
4.869141	1.479468
4.869629	1.479063
4.870117	1.479395
4.870605	1.479219
4.871094	1.479118
4.871582	1.479232
4.872070	1.479085
4.872559	1.479168
4.873047	1.479035
4.873535	1.479002
4.874023	1.479242
4.874512	1.478925
4.875000	1.479032
4.875488	1.479070
4.875977	1.479266
4.876465	1.479033
4.876953	1.479457
4.877441	1.479426
4.877930	1.479617
4.878418	1.479518
4.878906	1.479566
4.879395	1.479429
4.879883	1.479611
4.880371	1.479553
4.880859	1.479487
4.881348	1.479418
4.881836	1.479498
4.882324	1.479429

